# Wavelength	Absorbance
197.780200 -0.233077
197.984200 0.320238
198.188200 -0.052046
198.392200 2.682145
198.596300 2.935507
198.800300 2.318063
199.004400 -0.163872
199.208500 -0.272962
199.412600 2.776701
199.616800 2.768638
199.820900 -0.693281
200.025100 -0.233652
200.229200 -0.647706
200.433400 3.008600
200.637600 -0.455776
200.841800 0.248790
201.046100 0.298483
201.250300 0.295747
201.454600 3.220892
201.658900 0.341035
201.863100 -0.064428
202.067400 2.760422
202.271800 3.093772
202.476100 -0.054325
202.680500 0.488913
202.884800 0.174278
203.089200 3.034628
203.293600 -0.366524
203.498000 0.079500
203.702400 2.336460
203.906900 -1.001905
204.111300 -3.025715
204.315800 2.728354
204.520300 0.020382
204.724800 -0.624743
204.929300 2.396199
205.133800 0.678798
205.338400 0.405228
205.543000 3.171434
205.747500 -0.470143
205.952100 -0.250885
206.156700 0.150400
206.361400 -3.042576
206.566000 -0.741898
206.770600 0.392228
206.975300 0.335425
207.180000 -2.221973
207.384700 2.587711
207.589400 -1.690196
207.794100 0.520966
207.998900 -0.680982
208.203600 0.672281
208.408400 0.632355
208.613200 -0.075773
208.818000 -0.656744
209.022800 -0.619254
209.227600 0.861160
209.432500 0.060993
209.637300 -0.053364
209.842200 2.294466
210.047100 -0.305836
210.252000 2.053078
210.456900 0.190385
210.661800 0.327837
210.866800 -0.145103
211.071800 3.104487
211.276700 -0.367132
211.481700 -0.253498
211.686700 -0.318394
211.891800 -0.130653
212.096800 0.406841
212.301800 2.890421
212.506900 0.403603
212.712000 0.775340
212.917100 0.342113
213.122200 -0.150746
213.327300 -0.073133
213.532500 0.000000
213.737600 0.179247
213.942800 -0.847308
214.148000 -0.264531
214.353200 0.000000
214.558400 0.345508
214.763600 3.265290
214.968900 -0.397499
215.174100 0.412522
215.379400 -2.509203
215.584700 0.154990
215.790000 -0.155645
215.995300 2.820201
216.200700 -0.406274
216.406000 0.607537
216.611400 -0.373235
216.816800 0.027604
217.022200 -0.476081
217.227600 -0.102850
217.433000 2.536558
217.638400 0.256286
217.843900 -0.488506
218.049400 0.000000
218.254800 0.091811
218.460300 0.335579
218.665900 0.442381
218.871400 0.940051
219.076900 -0.026694
219.282500 -0.019512
219.488100 -0.042630
219.693600 -0.196554
219.899200 0.614428
220.104900 0.056248
220.310500 -1.018885
220.516100 -2.414973
220.721800 0.681825
220.927500 0.591138
221.133200 0.228982
221.338900 0.210038
221.544600 2.846955
221.750300 -0.158868
221.956100 -0.257536
222.161800 -0.467723
222.367600 0.534886
222.573400 0.594235
222.779200 -3.354685
222.985000 -3.152288
223.190900 0.133222
223.396700 -0.238562
223.602600 -0.410118
223.808500 0.441930
224.014400 2.853698
224.220300 -0.025439
224.426200 -0.086849
224.632200 1.882443
224.838100 2.890421
225.044100 0.238239
225.250100 -0.309510
225.456100 -0.307734
225.662100 -0.449969
225.868100 2.127105
226.074200 -0.544791
226.280200 0.000000
226.486300 -0.025201
226.692400 -3.132260
226.898500 0.340981
227.104600 2.294466
227.310700 0.575376
227.516900 2.833784
227.723000 -0.850113
227.929200 0.525312
228.135400 3.074816
228.341600 -0.069751
228.547800 0.917895
228.754100 0.170107
228.960300 -0.873083
229.166600 0.000000
229.372900 -0.210647
229.579100 -0.494201
229.785500 -0.104284
229.991800 -2.115848
230.198100 -0.482802
230.404500 -0.451186
230.610800 0.144153
230.817200 -2.846955
231.023600 0.162880
231.230000 -0.256971
231.436400 0.361300
231.642900 2.718502
231.849300 -0.092538
232.055800 -0.851138
232.262300 3.280123
232.468800 -1.066674
232.675300 2.701568
232.881800 0.305417
233.088400 2.745075
233.294900 2.550228
233.501500 -0.058943
233.708100 0.000000
233.914700 2.710963
234.121300 -2.940018
234.327900 2.776701
234.534600 -0.334888
234.741300 0.000347
234.947900 0.044431
235.154600 0.228952
235.361300 0.707570
235.568000 3.022016
235.774800 -0.081535
235.981500 0.223836
236.188300 0.000000
236.395100 -0.317034
236.601800 -2.610660
236.808700 -0.081629
237.015500 1.002380
237.222300 -0.180529
237.429200 0.126040
237.636000 -0.264741
237.842900 -1.223558
238.049800 0.469848
238.256700 -0.019808
238.463600 3.063333
238.670600 1.280616
238.877500 0.162836
239.084500 -2.872156
239.291500 0.638631
239.498500 2.245513
239.705500 -0.590811
239.912500 1.845098
240.119500 -1.435285
240.326600 -1.271467
240.533700 0.000000
240.740700 2.621176
240.947800 -0.008792
241.154900 3.059185
241.362100 -0.003372
241.569200 -0.652199
241.776400 0.178929
241.983500 2.783904
242.190700 3.206826
242.397900 -3.139249
242.605100 -0.380735
242.812400 -0.583430
243.019600 0.358064
243.226900 0.415651
243.434100 -0.137869
243.641400 -0.538684
243.848700 0.380380
244.056000 -3.139249
244.263400 -0.180572
244.470700 0.306811
244.678100 -0.056823
244.885400 0.334808
245.092800 -0.470143
245.300200 -0.907119
245.507600 0.359196
245.715100 0.258654
245.922500 -0.056302
246.130000 -1.641707
246.337500 -0.055995
246.544900 -0.379775
246.752400 0.529075
246.960000 3.165244
247.167500 0.244562
247.375000 -2.480007
247.582600 1.066674
247.790200 -1.189129
247.997800 -0.085883
248.205400 3.262925
248.413000 -0.231748
248.620600 0.278835
248.828300 0.117925
249.035900 0.468307
249.243600 0.461314
249.451300 2.437297
249.659000 0.212110
249.866700 0.535745
250.074500 0.330367
250.282200 0.680288
250.490000 3.021603
250.697800 -0.071599
250.905600 2.480007
251.113400 0.219812
251.321200 -0.580203
251.529000 2.008600
251.736900 0.187642
251.944700 0.476557
252.152600 0.995123
252.360500 2.710117
252.568400 -0.571506
252.776300 -0.378034
252.984300 -0.377892
253.192200 2.985426
253.400200 2.935003
253.608200 -0.558781
253.816200 3.282396
254.024200 2.872739
254.232200 -0.312568
254.440200 -3.118595
254.648300 -0.369872
254.856400 -0.025973
255.064400 -0.430582
255.272500 0.190193
255.480600 0.134017
255.688800 -2.929419
255.896900 0.320077
256.105100 0.652424
256.313200 -0.512237
256.521400 -0.102050
256.729600 -0.056711
256.937800 0.832977
257.146000 -0.187902
257.354300 0.000000
257.562500 0.233308
257.770800 -3.234264
257.979100 0.419372
258.187400 0.324582
258.395700 1.123744
258.604000 0.187673
258.812400 0.356785
259.020700 0.463832
259.229100 0.132826
259.437500 -0.149590
259.645900 0.422408
259.854300 0.341963
260.062700 -0.045660
260.271100 0.111974
260.479600 3.097604
260.688100 -0.520133
260.896500 0.227138
261.105000 -0.637636
261.313500 -0.613088
261.522100 3.142702
261.730600 0.185538
261.939200 0.286595
262.147700 -0.233601
262.356300 2.745075
262.564900 2.536558
262.773500 0.274954
262.982200 0.086784
263.190800 0.000000
263.399500 -0.171572
263.608100 0.451306
263.816800 0.200844
264.025500 -0.236258
264.234200 -0.849812
264.442900 0.605920
264.651700 3.097604
264.860400 0.153555
265.069200 0.061258
265.278000 -0.092087
265.486800 0.302870
265.695600 2.450249
265.904400 -0.146406
266.113300 -0.474933
266.322100 -0.165580
266.531000 2.294466
266.739900 -0.772605
266.948800 0.589248
267.157700 -0.095663
267.366600 3.055378
267.575500 0.107375
267.784500 -0.667782
267.993500 0.302792
268.202400 0.210389
268.411400 -0.329033
268.620500 0.382778
268.829500 0.084009
269.038500 -0.748305
269.247600 3.078819
269.456600 -0.623857
269.665700 -0.024223
269.874800 2.907411
270.083900 0.129791
270.293100 -2.806180
270.502200 -0.225443
270.711400 -1.056165
270.920500 -0.277814
271.129700 -0.022748
271.338900 3.115611
271.548100 -0.573089
271.757300 0.338230
271.966600 -0.298788
272.175800 0.517187
272.385100 0.887067
272.594400 -0.181477
272.803700 0.277310
273.013000 0.008352
273.222300 0.700291
273.431600 0.012956
273.641000 3.209783
273.850400 -0.543204
274.059700 0.313503
274.269100 0.418527
274.478500 2.950851
274.688000 0.377375
274.897400 2.866287
275.106900 -1.468120
275.316300 -0.224517
275.525800 3.067071
275.735300 -0.845098
275.944800 -0.042502
276.154300 -0.010263
276.363900 0.236863
276.573400 0.112565
276.783000 0.403379
276.992600 -0.123856
277.202200 0.107257
277.411800 -0.232490
277.621400 -0.191013
277.831000 1.069377
278.040700 0.151821
278.250300 -0.350940
278.460000 0.063351
278.669700 0.040440
278.879400 -0.496450
279.089100 0.732924
279.298900 -0.087104
279.508600 3.025715
279.718400 0.238542
279.928100 0.000000
280.137900 0.216243
280.347700 2.632457
280.557600 0.216653
280.767400 3.039017
280.977200 -0.194915
281.187100 -2.999131
281.397000 0.609898
281.606900 0.000000
281.816800 -0.048562
282.026700 -0.650239
282.236600 -0.271553
282.446600 2.924279
282.656500 -2.859739
282.866500 0.376717
283.076500 -0.223836
283.286500 -0.139754
283.496500 0.112045
283.706500 2.907411
283.916600 -0.123607
284.126600 -1.493358
284.336700 0.145940
284.546800 -0.383101
284.756900 0.064769
284.967000 0.769421
285.177100 -0.212062
285.387300 -2.872156
285.597400 0.429322
285.807600 -0.211352
286.017800 0.059982
286.228000 -2.989895
286.438200 3.171434
286.648400 -0.020430
286.858700 0.182863
287.068900 -0.509557
287.279200 0.136838
287.489500 0.569875
287.699800 3.158965
287.910100 -0.461250
288.120400 1.600117
288.330800 -0.412349
288.541100 0.434399
288.751500 0.770326
288.961900 -0.298018
289.172300 -3.074816
289.382700 -0.077472
289.593100 -0.085847
289.803500 -3.234264
290.014000 2.980458
290.224500 0.283210
290.434900 -3.034227
290.645400 0.056362
290.855900 2.653213
291.066500 -0.228254
291.277000 2.744293
291.487500 -0.171380
291.698100 2.768638
291.908700 -0.695771
292.119300 3.059185
292.329900 0.704513
292.540500 -0.032069
292.751100 -0.288603
292.961800 -3.244772
293.172400 3.171434
293.383100 0.000000
293.593800 0.700291
293.804500 -0.066749
294.015200 -0.248456
294.226000 -2.859739
294.436700 -0.161606
294.647500 -0.063132
294.858200 0.075686
295.069000 0.928274
295.279800 -0.497868
295.490600 -2.673021
295.701500 -0.118063
295.912300 0.704387
296.123200 3.247728
296.334000 2.719331
296.544900 0.398254
296.755800 0.068604
296.966700 -0.246439
297.177700 0.253996
297.388600 2.935003
297.599500 -0.649042
297.810500 0.437046
298.021500 3.149219
298.232500 0.156509
298.443500 -1.493074
298.654500 3.177536
298.865600 0.278851
299.076600 -0.578636
299.287700 -2.653213
299.498800 3.201124
299.709900 2.902003
299.921000 0.217484
300.132100 0.502062
300.343200 3.270446
300.554400 -0.470172
300.765500 0.404992
300.976700 0.000000
301.187900 0.493827
301.399100 -0.261235
301.610300 0.130237
301.821500 3.364739
302.032800 3.104487
302.244100 -0.195003
302.455300 0.444392
302.666600 3.063333
302.877900 0.255530
303.089200 -0.252725
303.300600 0.192750
303.511900 0.555838
303.723300 2.924279
303.934600 -0.076151
304.146000 -2.280383
304.357400 -0.609606
304.568800 -0.292294
304.780300 3.192289
304.991700 -0.290199
305.203100 -0.066615
305.414600 0.506417
305.626100 -0.154240
305.837600 0.211229
306.049100 0.726756
306.260600 1.001934
306.472200 -0.263690
306.683700 -0.212703
306.895300 -0.097833
307.106900 1.182506
307.318400 0.907524
307.530100 0.246690
307.741700 0.152967
307.953300 0.315203
308.165000 -2.190332
308.376600 0.190473
308.588300 3.242293
308.800000 0.907122
309.011700 0.089627
309.223400 1.280708
309.435100 -0.702039
309.646900 -0.089313
309.858600 -0.056603
310.070400 0.210491
310.282200 1.447158
310.494000 3.287130
310.705800 3.168203
310.917600 0.039101
311.129500 0.501650
311.341300 -0.033359
311.553200 0.209601
311.765100 0.041992
311.977000 0.580409
312.188900 0.378251
312.400800 3.030600
312.612700 3.012837
312.824700 0.396060
313.036600 0.678958
313.248600 1.641838
313.460600 -0.067505
313.672600 0.980615
313.884600 -0.114491
314.096700 -0.110234
314.308700 1.060988
314.520800 0.494168
314.732800 0.291179
314.944900 0.492916
315.157000 3.362859
315.369200 0.495074
315.581300 -0.106424
315.793400 -0.307734
316.005600 0.931876
316.217700 1.118985
316.429900 0.962882
316.642100 0.753229
316.854300 -0.195594
317.066600 1.085047
317.278800 0.521165
317.491100 3.192289
317.703300 3.336260
317.915600 1.606250
318.127900 1.486718
318.340200 0.719206
318.552500 3.255273
318.764900 3.139249
318.977200 0.395017
319.189600 3.030195
319.401900 0.466378
319.614300 0.999506
319.826700 3.192289
320.039200 0.158036
320.251600 0.085402
320.464000 3.336260
320.676500 0.537748
320.889000 2.465383
321.101400 0.675868
321.313900 0.861562
321.526500 0.620825
321.739000 0.516838
321.951500 0.151926
322.164100 0.098353
322.376600 0.166422
322.589200 0.947886
322.801800 0.293540
323.014400 1.401930
323.227000 0.521092
323.439700 0.325835
323.652300 3.471292
323.865000 3.374748
324.077700 0.639554
324.290400 0.311138
324.503100 0.544795
324.715800 0.382121
324.928500 0.591913
325.141200 0.341599
325.354000 0.360269
325.566800 0.736662
325.779600 0.672251
325.992400 0.538735
326.205200 3.542576
326.418000 0.149052
326.630800 0.970834
326.843700 3.659250
327.056600 0.171289
327.269400 1.226641
327.482300 3.531990
327.695200 3.385964
327.908200 3.508395
328.121100 3.453930
328.334000 0.284146
328.547000 0.246991
328.760000 1.453482
328.973000 0.519798
329.186000 0.335398
329.399000 3.445915
329.612000 3.715669
329.825100 1.640055
330.038100 3.534534
330.251200 1.157898
330.464300 1.968102
330.677400 0.636353
330.890500 3.739651
331.103600 0.619057
331.316700 0.537482
331.529900 0.526038
331.743100 1.021586
331.956200 0.900917
332.169400 0.587942
332.382600 3.520876
332.595900 0.629001
332.809100 0.339712
333.022300 0.270296
333.235600 1.001011
333.448900 0.454384
333.662200 3.609381
333.875500 1.475999
334.088800 1.559209
334.302100 1.152810
334.515400 1.110531
334.728800 0.968850
334.942200 0.697537
335.155500 0.546013
335.368900 0.757734
335.582300 3.640879
335.795800 0.432196
336.009200 0.836412
336.222700 0.758826
336.436100 0.735364
336.649600 0.736765
336.863100 0.746634
337.076600 0.836184
337.290100 0.770576
337.503600 0.672967
337.717200 0.429486
337.930700 1.428250
338.144300 0.841019
338.357900 0.737735
338.571500 0.381618
338.785100 3.703205
338.998700 0.600481
339.212400 0.772737
339.426000 0.878360
339.639700 3.667266
339.853300 0.600647
340.067000 0.698812
340.280700 3.765594
340.494500 1.062533
340.708200 0.456177
340.921900 3.796644
341.135700 1.179111
341.349500 0.414667
341.563300 1.936729
341.777100 3.818094
341.990900 0.870219
342.204700 0.876024
342.418500 0.818079
342.632400 0.647191
342.846300 1.111622
343.060100 0.846068
343.274000 2.979938
343.487900 1.080760
343.701900 3.795185
343.915800 1.833980
344.129700 3.873611
344.343700 0.987018
344.557700 1.014673
344.771700 1.329687
344.985700 0.810015
345.199700 1.124367
345.413700 0.669364
345.627700 2.093136
345.841800 3.870521
346.055900 3.854124
346.269900 1.141103
346.484000 0.680605
346.698100 3.825686
346.912300 0.978184
347.126400 0.965993
347.340600 0.928352
347.554700 3.883264
347.768900 3.886321
347.983100 0.802808
348.197300 1.594779
348.411500 0.722207
348.625700 1.019804
348.840000 0.937669
349.054200 1.389527
349.268500 0.649693
349.482800 0.907553
349.697100 1.268422
349.911400 0.780575
350.125700 0.681658
350.340000 0.667889
350.554400 0.788753
350.768700 1.005395
350.983100 3.917820
351.197500 3.889246
351.411900 2.139339
351.626300 0.920690
351.840700 0.954858
352.055200 0.736897
352.269600 3.959471
352.484100 0.989905
352.698600 0.615691
352.913100 0.897726
353.127600 3.993348
353.342100 1.468259
353.556600 0.669403
353.771200 0.917629
353.985800 1.003625
354.200300 1.110697
354.414900 1.370433
354.629500 0.761325
354.844100 0.729219
355.058800 3.971879
355.273400 0.686712
355.488100 1.213164
355.702700 1.511441
355.917400 3.938920
356.132100 0.856863
356.346800 3.982000
356.561500 4.004364
356.776300 0.779258
356.991000 0.878410
357.205800 1.538558
357.420600 3.988202
357.635300 3.982045
357.850100 0.841369
358.065000 2.146837
358.279800 3.980549
358.494600 3.959995
358.709500 2.167781
358.924300 3.975799
359.139200 0.913735
359.354100 3.988202
359.569000 1.201354
359.783900 3.987264
359.998900 1.369753
360.213800 1.292405
360.428800 1.021465
360.643800 0.974323
360.858700 0.754390
361.073700 0.697626
361.288800 4.042142
361.503800 1.065505
361.718800 1.189016
361.933900 1.472765
362.148900 0.926961
362.364000 1.514706
362.579100 0.818073
362.794200 0.664729
363.009300 0.919962
363.224500 4.031206
363.439600 1.140052
363.654800 0.975805
363.869900 1.132190
364.085100 4.019947
364.300300 0.726025
364.515500 2.204004
364.730800 2.615687
364.946000 0.896944
365.161200 0.681716
365.376500 0.868350
365.591800 1.170576
365.807100 0.669767
366.022400 0.989377
366.237700 1.218283
366.453000 1.222588
366.668400 4.089375
366.883700 1.452973
367.099100 1.887291
367.314500 0.756164
367.529900 1.479074
367.745300 1.526967
367.960700 4.089375
368.176100 0.799046
368.391600 1.205875
368.607000 2.289207
368.822500 0.888405
369.038000 1.517716
369.253500 4.100405
369.469000 1.089494
369.684500 1.218420
369.900100 1.179976
370.115600 2.222828
370.331200 0.863583
370.546800 1.297829
370.762400 1.088690
370.978000 4.107990
371.193600 1.014445
371.409200 4.124798
371.624900 1.002045
371.840500 4.181129
372.056200 1.680855
372.271900 1.182574
372.487600 0.985114
372.703300 1.620713
372.919000 1.248121
373.134800 4.137671
373.350500 1.389342
373.566300 4.154637
373.782000 1.970377
373.997800 4.169498
374.213600 1.423644
374.429400 0.990365
374.645300 0.944835
374.861100 1.718611
375.077000 4.192735
375.292800 2.337231
375.508700 4.212241
375.724600 4.210586
375.940500 3.373306
376.156400 4.224455
376.372400 4.242367
376.588300 1.924201
376.804300 0.848756
377.020300 1.798874
377.236200 1.175900
377.452200 1.854843
377.668200 1.300673
377.884300 1.532816
378.100300 1.447085
378.316400 2.046367
378.532400 1.543487
378.748500 1.525381
378.964600 1.269877
379.180700 1.378975
379.396800 1.939791
379.612900 4.277861
379.829100 1.043340
380.045200 4.285760
380.261400 1.525003
380.477600 1.160421
380.693800 1.108161
380.910000 1.468981
381.126200 2.328133
381.342400 1.155012
381.558700 4.275910
381.774900 1.156347
381.991200 1.024423
382.207500 1.156004
382.423800 1.594761
382.640100 1.042918
382.856400 1.380389
383.072800 1.708841
383.289100 4.351042
383.505500 1.488503
383.721900 4.350442
383.938200 2.494373
384.154600 1.600806
384.371100 1.503994
384.587500 1.452817
384.803900 4.366890
385.020400 1.483353
385.236800 4.356332
385.453300 1.490080
385.669800 4.340702
385.886300 1.707532
386.102800 1.727663
386.319400 1.337478
386.535900 1.923266
386.752500 2.010183
386.969000 1.396861
387.185600 1.087043
387.402200 4.400210
387.618800 2.953414
387.835500 1.834063
388.052100 1.466869
388.268700 1.817943
388.485400 1.518531
388.702100 1.827196
388.918800 4.402382
389.135500 1.810384
389.352200 1.920376
389.568900 2.937267
389.785600 1.146313
390.002400 1.731983
390.219200 1.528469
390.435900 2.072371
390.652700 4.398738
390.869500 1.182292
391.086300 1.408150
391.303200 1.229966
391.520000 1.453498
391.736900 2.177946
391.953700 1.105518
392.170600 1.124051
392.387500 1.398505
392.604400 1.721149
392.821300 1.575522
393.038300 1.275871
393.255200 1.255588
393.472200 4.475352
393.689100 1.555093
393.906100 1.757960
394.123100 1.137963
394.340100 4.463997
394.557200 1.261511
394.774200 1.704216
394.991200 1.989005
395.208300 1.782775
395.425400 1.776722
395.642500 1.912433
395.859600 1.417072
396.076700 4.461318
396.293800 1.688328
396.510900 2.192531
396.728100 1.197603
396.945300 1.822782
397.162400 1.464105
397.379600 1.293510
397.596800 4.514322
397.814000 1.425812
398.031300 1.649072
398.248500 1.471504
398.465800 1.635637
398.683000 4.546061
398.900300 1.345558
399.117600 4.544105
399.334900 4.553300
399.552200 1.489014
399.769600 1.414515
399.986900 1.922985
400.204300 4.525938
400.421600 2.176702
400.639000 1.828192
400.856400 1.376641
401.073800 1.488569
401.291200 1.306566
401.508700 1.919219
401.726100 4.526210
401.943600 1.304693
402.161000 4.519198
402.378500 1.593221
402.596000 4.524019
402.813500 1.285129
403.031000 4.536584
403.248600 1.118994
403.466100 1.455439
403.683700 1.364773
403.901300 1.468982
404.118900 1.279426
404.336500 1.556517
404.554100 1.410572
404.771700 1.741570
404.989300 1.611798
405.207000 1.298510
405.424600 1.390664
405.642300 1.555571
405.860000 1.224171
406.077700 1.364584
406.295400 1.735268
406.513100 1.556668
406.730900 1.987877
406.948600 1.873398
407.166400 1.976419
407.384200 1.337074
407.602000 4.509525
407.819800 1.091500
408.037600 1.210224
408.255400 1.389172
408.473300 1.433697
408.691100 1.512611
408.909000 1.231146
409.126900 1.794155
409.344800 1.436205
409.562700 1.212115
409.780600 2.876607
409.998500 1.430849
410.216500 1.737671
410.434400 1.163356
410.652400 1.194174
410.870400 1.694399
411.088400 1.158005
411.306400 1.112524
411.524400 1.831362
411.742400 1.838990
411.960500 1.368837
412.178500 1.090714
412.396600 1.250992
412.614700 1.030966
412.832800 1.279979
413.050900 1.072818
413.269000 1.152079
413.487100 1.198223
413.705300 1.371227
413.923400 1.244146
414.141600 1.167592
414.359800 1.427144
414.578000 1.175820
414.796200 1.163740
415.014400 1.034691
415.232600 1.259064
415.450900 1.051621
415.669200 1.203604
415.887400 1.149207
416.105700 1.147686
416.324000 1.300166
416.542300 1.112130
416.760600 1.120136
416.979000 0.966070
417.197300 1.106785
417.415700 1.087297
417.634100 1.029062
417.852400 1.305139
418.070800 0.963175
418.289300 0.916291
418.507700 1.291205
418.726100 1.155215
418.944600 0.960171
419.163000 0.948666
419.381500 1.064357
419.600000 1.127591
419.818500 1.058368
420.037000 0.946509
420.255500 1.050275
420.474100 0.972785
420.692600 1.016390
420.911200 1.030361
421.129800 1.080562
421.348300 1.037867
421.566900 0.973901
421.785600 1.015737
422.004200 1.009984
422.222800 0.874909
422.441500 0.987473
422.660100 1.056886
422.878800 0.871350
423.097500 0.975654
423.316200 0.883914
423.534900 1.038048
423.753600 1.002914
423.972400 0.833357
424.191100 0.927719
424.409900 0.866937
424.628700 0.848518
424.847500 0.874570
425.066300 0.757867
425.285100 0.907784
425.503900 1.001255
425.722800 0.859953
425.941600 0.853013
426.160500 0.887301
426.379300 0.858978
426.598200 0.790064
426.817100 0.883277
427.036100 0.872899
427.255000 0.915336
427.473900 0.788057
427.692900 0.872218
427.911800 0.735993
428.130800 0.885558
428.349800 0.816897
428.568800 0.774904
428.787800 0.652144
429.006800 0.748376
429.225900 0.745787
429.444900 0.707924
429.664000 0.722076
429.883100 0.831136
430.102200 0.670618
430.321300 0.708425
430.540400 0.660752
430.759500 0.758721
430.978700 0.736116
431.197800 0.690799
431.417000 0.608014
431.636200 0.710473
431.855300 0.612448
432.074500 0.728447
432.293800 0.658519
432.513000 0.680318
432.732200 0.591836
432.951500 0.664218
433.170700 0.660052
433.390000 0.602278
433.609300 0.666741
433.828600 0.629926
434.047900 0.672128
434.267300 0.634815
434.486600 0.654461
434.705900 0.578089
434.925300 0.658365
435.144700 0.543555
435.364100 0.591613
435.583500 0.541488
435.802900 0.591739
436.022300 0.552909
436.241800 0.556453
436.461200 0.597871
436.680700 0.596103
436.900100 0.517439
437.119600 0.547748
437.339100 0.558564
437.558600 0.532238
437.778200 0.526655
437.997700 0.516829
438.217300 0.495225
438.436800 0.518096
438.656400 0.529594
438.876000 0.451874
439.095600 0.538484
439.315200 0.491396
439.534800 0.483999
439.754500 0.529339
439.974100 0.535008
440.193800 0.501057
440.413500 0.528750
440.633100 0.469056
440.852800 0.437711
441.072500 0.537791
441.292300 0.467763
441.512000 0.489490
441.731800 0.491336
441.951500 0.438712
442.171300 0.489918
442.391100 0.465561
442.610900 0.459336
442.830700 0.449025
443.050500 0.488518
443.270300 0.404523
443.490200 0.476259
443.710100 0.409896
443.929900 0.417005
444.149800 0.437917
444.369700 0.436231
444.589600 0.430433
444.809500 0.435176
445.029500 0.441985
445.249400 0.407792
445.469400 0.419360
445.689400 0.406588
445.909300 0.397161
446.129300 0.406977
446.349300 0.397992
446.569400 0.445885
446.789400 0.389094
447.009400 0.425383
447.229500 0.381396
447.449600 0.405672
447.669600 0.380470
447.889700 0.405888
448.109800 0.342783
448.330000 0.349015
448.550100 0.384166
448.770200 0.378333
448.990400 0.398863
449.210600 0.377875
449.430700 0.387809
449.650900 0.385204
449.871100 0.374263
450.091400 0.360233
450.311600 0.316539
450.531800 0.397529
450.752100 0.329976
450.972400 0.348490
451.192600 0.359076
451.412900 0.376722
451.633200 0.305502
451.853500 0.323618
452.073900 0.307078
452.294200 0.334573
452.514600 0.333981
452.734900 0.324610
452.955300 0.313600
453.175700 0.319189
453.396100 0.309684
453.616500 0.333485
453.836900 0.326290
454.057400 0.323925
454.277800 0.308870
454.498300 0.314647
454.718800 0.328784
454.939300 0.339886
455.159700 0.313087
455.380300 0.322362
455.600800 0.286914
455.821300 0.336754
456.041900 0.309668
456.262400 0.292416
456.483000 0.325234
456.703600 0.258137
456.924200 0.280368
457.144800 0.281267
457.365400 0.277348
457.586000 0.298112
457.806700 0.299002
458.027400 0.292611
458.248000 0.273716
458.468700 0.272774
458.689400 0.272337
458.910100 0.283356
459.130800 0.301451
459.351600 0.259746
459.572300 0.301819
459.793100 0.258798
460.013800 0.282274
460.234600 0.282586
460.455400 0.296419
460.676200 0.263899
460.897000 0.250580
461.117800 0.314710
461.338700 0.287189
461.559500 0.272221
461.780400 0.278907
462.001300 0.271047
462.222200 0.263465
462.443100 0.270036
462.664000 0.298593
462.884900 0.247013
463.105900 0.255528
463.326800 0.276375
463.547800 0.256360
463.768700 0.255685
463.989700 0.254258
464.210700 0.244722
464.431700 0.246723
464.652800 0.247196
464.873800 0.253550
465.094800 0.236586
465.315900 0.261102
465.537000 0.243490
465.758100 0.253240
465.979200 0.247728
466.200300 0.227936
466.421400 0.202915
466.642500 0.261597
466.863700 0.235649
467.084800 0.250011
467.306000 0.265741
467.527200 0.254747
467.748400 0.232311
467.969600 0.250477
468.190800 0.252291
468.412000 0.252070
468.633300 0.243251
468.854500 0.226499
469.075800 0.216678
469.297000 0.241968
469.518300 0.256709
469.739600 0.215881
469.961000 0.221332
470.182300 0.220069
470.403600 0.257126
470.625000 0.234457
470.846300 0.238600
471.067700 0.217537
471.289100 0.227178
471.510500 0.227305
471.731900 0.227945
471.953300 0.207099
472.174800 0.268878
472.396200 0.220975
472.617700 0.254949
472.839100 0.232333
473.060600 0.244869
473.282100 0.274764
473.503600 0.193519
473.725100 0.262799
473.946700 0.262916
474.168200 0.239170
474.389800 0.244675
474.611300 0.230321
474.832900 0.244555
475.054500 0.208070
475.276100 0.236124
475.497700 0.206262
475.719300 0.204759
475.941000 0.251903
476.162600 0.227909
476.384300 0.214465
476.606000 0.212213
476.827700 0.274359
477.049400 0.232039
477.271100 0.236496
477.492800 0.246319
477.714500 0.187505
477.936300 0.224463
478.158000 0.198301
478.379800 0.234298
478.601600 0.229916
478.823400 0.213870
479.045200 0.232861
479.267000 0.232488
479.488800 0.204375
479.710700 0.224351
479.932500 0.193952
480.154400 0.208835
480.376300 0.215776
480.598200 0.237458
480.820100 0.224614
481.042000 0.218432
481.263900 0.239904
481.485900 0.233837
481.707800 0.241687
481.929800 0.233088
482.151700 0.207593
482.373700 0.229502
482.595700 0.194634
482.817700 0.231010
483.039800 0.227762
483.261800 0.219926
483.483800 0.226115
483.705900 0.207582
483.928000 0.202686
484.150100 0.227703
484.372100 0.233778
484.594300 0.197626
484.816400 0.177067
485.038500 0.232676
485.260600 0.195635
485.482800 0.223660
485.705000 0.219523
485.927100 0.221333
486.149300 0.213041
486.371500 0.208756
486.593700 0.238336
486.816000 0.224334
487.038200 0.229456
487.260500 0.236220
487.482700 0.261414
487.705000 0.254828
487.927300 0.219732
488.149600 0.224864
488.371900 0.212182
488.594200 0.215081
488.816500 0.201008
489.038900 0.233628
489.261200 0.204128
489.483600 0.220166
489.706000 0.196174
489.928400 0.214280
490.150800 0.224646
490.373200 0.214892
490.595600 0.231893
490.818000 0.198735
491.040500 0.223692
491.263000 0.176718
491.485400 0.223131
491.707900 0.214084
491.930400 0.213579
492.152900 0.175456
492.375500 0.214408
492.598000 0.204655
492.820500 0.226406
493.043100 0.194972
493.265700 0.241744
493.488200 0.198536
493.710800 0.185297
493.933400 0.205395
494.156100 0.193049
494.378700 0.205185
494.601300 0.231619
494.824000 0.212360
495.046600 0.211586
495.269300 0.220917
495.492000 0.212366
495.714700 0.206775
495.937400 0.219836
496.160100 0.224009
496.382900 0.230308
496.605600 0.208391
496.828400 0.236522
497.051100 0.226313
497.273900 0.205580
497.496700 0.241212
497.719500 0.204684
497.942300 0.255973
498.165200 0.223818
498.388000 0.223542
498.610900 0.167089
498.833700 0.222753
499.056600 0.220103
499.279500 0.190572
499.502400 0.212440
499.725300 0.198315
499.948200 0.207493
500.171200 0.193011
500.394100 0.229055
500.617100 0.188985
500.840000 0.223669
501.063000 0.195047
501.286000 0.220684
501.509000 0.203521
501.732000 0.217182
501.955100 0.212004
502.178100 0.214913
502.401200 0.196518
502.624200 0.211756
502.847300 0.203112
503.070400 0.229035
503.293500 0.200950
503.516600 0.204968
503.739700 0.184817
503.962800 0.204784
504.186000 0.210345
504.409200 0.225736
504.632300 0.183709
504.855500 0.235983
505.078700 0.211370
505.301900 0.219702
505.525100 0.214061
505.748300 0.205455
505.971600 0.181197
506.194800 0.213121
506.418100 0.256014
506.641400 0.214296
506.864700 0.221361
507.088000 0.211388
507.311300 0.195433
507.534600 0.211163
507.757900 0.203681
507.981300 0.223593
508.204600 0.211747
508.428000 0.210682
508.651400 0.192292
508.874800 0.215095
509.098200 0.204779
509.321600 0.233007
509.545000 0.207583
509.768500 0.246739
509.991900 0.233179
510.215400 0.201020
510.438800 0.180991
510.662300 0.179535
510.885800 0.236480
511.109300 0.244321
511.332900 0.180605
511.556400 0.205965
511.779900 0.230568
512.003500 0.192459
512.227000 0.241205
512.450600 0.176691
512.674200 0.205257
512.897800 0.206395
513.121400 0.242815
513.345100 0.195032
513.568700 0.199933
513.792300 0.207716
514.016000 0.198892
514.239700 0.201801
514.463400 0.204617
514.687100 0.170650
514.910800 0.187141
515.134500 0.242563
515.358200 0.202607
515.581900 0.211774
515.805700 0.210680
516.029500 0.233912
516.253200 0.180214
516.477000 0.230959
516.700800 0.206855
516.924600 0.219901
517.148500 0.212589
517.372300 0.221203
517.596100 0.168587
517.820000 0.254091
518.043900 0.230743
518.267700 0.241600
518.491600 0.200293
518.715500 0.173281
518.939500 0.185058
519.163400 0.185640
519.387300 0.237065
519.611300 0.204033
519.835200 0.183196
520.059200 0.203551
520.283200 0.219404
520.507200 0.231947
520.731200 0.206767
520.955200 0.251258
521.179200 0.209496
521.403300 0.221144
521.627300 0.165517
521.851400 0.196628
522.075500 0.194552
522.299600 0.184462
522.523700 0.189993
522.747800 0.210019
522.971900 0.225698
523.196000 0.195547
523.420200 0.199327
523.644300 0.182326
523.868500 0.235801
524.092700 0.201179
524.316900 0.219429
524.541100 0.213234
524.765300 0.235361
524.989500 0.240644
525.213800 0.182034
525.438000 0.203954
525.662300 0.217077
525.886500 0.188472
526.110800 0.223125
526.335100 0.202423
526.559400 0.163657
526.783700 0.205701
527.008100 0.181501
527.232400 0.186378
527.456800 0.217574
527.681100 0.190181
527.905500 0.175230
528.129900 0.220329
528.354300 0.215822
528.578700 0.205112
528.803100 0.198849
529.027600 0.162050
529.252000 0.198275
529.476500 0.195156
529.700900 0.215847
529.925400 0.224309
530.149900 0.177705
530.374400 0.215034
530.598900 0.204244
530.823400 0.191655
531.048000 0.233877
531.272500 0.236792
531.497100 0.193997
531.721700 0.179807
531.946200 0.183169
532.170800 0.184739
532.395400 0.206589
532.620000 0.178198
532.844700 0.180581
533.069300 0.219552
533.294000 0.221264
533.518600 0.200878
533.743300 0.180886
533.968000 0.190656
534.192700 0.215987
534.417400 0.204368
534.642100 0.196805
534.866800 0.176580
535.091600 0.181696
535.316300 0.186762
535.541100 0.175562
535.765900 0.212508
535.990700 0.213740
536.215500 0.171048
536.440300 0.195282
536.665100 0.202693
536.889900 0.189718
537.114800 0.177454
537.339600 0.193275
537.564500 0.189089
537.789400 0.178238
538.014300 0.192281
538.239200 0.226980
538.464100 0.190290
538.689000 0.215463
538.913900 0.193294
539.138900 0.175375
539.363800 0.196049
539.588800 0.211343
539.813800 0.222299
540.038800 0.206949
540.263800 0.186183
540.488800 0.192063
540.713800 0.198570
540.938900 0.182247
541.163900 0.168504
541.389000 0.197009
541.614000 0.200531
541.839100 0.195650
542.064200 0.180856
542.289300 0.201814
542.514400 0.165891
542.739600 0.207873
542.964700 0.199809
543.189900 0.231243
543.415000 0.202393
543.640200 0.203431
543.865400 0.239826
544.090600 0.181200
544.315800 0.199991
544.541000 0.204782
544.766200 0.219183
544.991500 0.189324
545.216700 0.213405
545.442000 0.208724
545.667300 0.199166
545.892600 0.191456
546.117900 0.206781
546.343200 0.216230
546.568500 0.176274
546.793800 0.223968
547.019200 0.188011
547.244500 0.194782
547.469900 0.175451
547.695300 0.174499
547.920600 0.197126
548.146000 0.184182
548.371500 0.192462
548.596900 0.216844
548.822300 0.201048
549.047800 0.195931
549.273200 0.182613
549.498700 0.164821
549.724200 0.214274
549.949600 0.196022
550.175100 0.181527
550.400700 0.182289
550.626200 0.213324
550.851700 0.194973
551.077300 0.165215
551.302800 0.176997
551.528400 0.179995
551.754000 0.212302
551.979600 0.224106
552.205200 0.218530
552.430800 0.187335
552.656400 0.189788
552.882000 0.206333
553.107700 0.203729
553.333300 0.189683
553.559000 0.177970
553.784700 0.169488
554.010400 0.238341
554.236100 0.173749
554.461800 0.190494
554.687500 0.193223
554.913200 0.174544
555.139000 0.200469
555.364800 0.189439
555.590500 0.206619
555.816300 0.198192
556.042100 0.200979
556.267900 0.162933
556.493700 0.210420
556.719500 0.208004
556.945400 0.182750
557.171200 0.215570
557.397100 0.180909
557.623000 0.195275
557.848800 0.178002
558.074700 0.205059
558.300600 0.198487
558.526600 0.175881
558.752500 0.209740
558.978400 0.189213
559.204400 0.191399
559.430300 0.183705
559.656300 0.203430
559.882300 0.175797
560.108300 0.150595
560.334300 0.176977
560.560300 0.176775
560.786300 0.168911
561.012400 0.198687
561.238400 0.181081
561.464500 0.202826
561.690500 0.161783
561.916600 0.184148
562.142700 0.187755
562.368800 0.189801
562.594900 0.181959
562.821100 0.194566
563.047200 0.215923
563.273300 0.198034
563.499500 0.195090
563.725700 0.174960
563.951900 0.175966
564.178100 0.179749
564.404300 0.208387
564.630500 0.186629
564.856700 0.188486
565.082900 0.201276
565.309200 0.211274
565.535500 0.203468
565.761700 0.166875
565.988000 0.170518
566.214300 0.158151
566.440600 0.161719
566.666900 0.188862
566.893200 0.183960
567.119600 0.169698
567.345900 0.181947
567.572300 0.194328
567.798700 0.186851
568.025000 0.175490
568.251400 0.171368
568.477800 0.194192
568.704300 0.196518
568.930700 0.177094
569.157100 0.179993
569.383600 0.160407
569.610000 0.178027
569.836500 0.179289
570.063000 0.162533
570.289500 0.179567
570.516000 0.192126
570.742500 0.175372
570.969000 0.177040
571.195600 0.182740
571.422100 0.180018
571.648700 0.171383
571.875200 0.191878
572.101800 0.184810
572.328400 0.197158
572.555000 0.182723
572.781600 0.194037
573.008200 0.184380
573.234900 0.187798
573.461500 0.185084
573.688200 0.180207
573.914900 0.189865
574.141500 0.180987
574.368200 0.185069
574.594900 0.182858
574.821600 0.170160
575.048400 0.190023
575.275100 0.185665
575.501800 0.190160
575.728600 0.186360
575.955400 0.182451
576.182100 0.196790
576.408900 0.187981
576.635700 0.181783
576.862600 0.182359
577.089400 0.184495
577.316200 0.171810
577.543100 0.189029
577.769900 0.187967
577.996800 0.188046
578.223700 0.187850
578.450500 0.188778
578.677400 0.189695
578.904400 0.182923
579.131300 0.191502
579.358200 0.177996
579.585100 0.178076
579.812100 0.182443
580.039100 0.180674
580.266000 0.179737
580.493000 0.172803
580.720000 0.181870
580.947000 0.177622
581.174100 0.171458
581.401100 0.172474
581.628100 0.174897
581.855200 0.169635
582.082200 0.176928
582.309300 0.173767
582.536400 0.172890
582.763500 0.172526
582.990600 0.176734
583.217700 0.168816
583.444900 0.176298
583.672000 0.178539
583.899100 0.183843
584.126300 0.186442
584.353500 0.180963
584.580700 0.180080
584.807900 0.185676
585.035100 0.177021
585.262300 0.174621
585.489500 0.188143
585.716700 0.169227
585.944000 0.167804
586.171300 0.171790
586.398500 0.171726
586.625800 0.177057
586.853100 0.177962
587.080400 0.173341
587.307700 0.174153
587.535000 0.164366
587.762400 0.171562
587.989700 0.175806
588.217100 0.178201
588.444500 0.174058
588.671800 0.169753
588.899200 0.167164
589.126600 0.176512
589.354000 0.192733
589.581500 0.176628
589.808900 0.187673
590.036300 0.194476
590.263800 0.187048
590.491300 0.187863
590.718700 0.161322
590.946200 0.188622
591.173700 0.191009
591.401200 0.186081
591.628800 0.169984
591.856300 0.189312
592.083800 0.175657
592.311400 0.167237
592.538900 0.167431
592.766500 0.170593
592.994100 0.178425
593.221700 0.177487
593.449300 0.169415
593.676900 0.181345
593.904600 0.172348
594.132200 0.166082
594.359800 0.170896
594.587500 0.159525
594.815200 0.163039
595.042900 0.170784
595.270500 0.172740
595.498300 0.172892
595.726000 0.188151
595.953700 0.172650
596.181400 0.176089
596.409200 0.172855
596.636900 0.180765
596.864700 0.190294
597.092500 0.187861
597.320300 0.177394
597.548100 0.186859
597.775900 0.186284
598.003700 0.180412
598.231500 0.181356
598.459400 0.189267
598.687200 0.171352
598.915100 0.176916
599.143000 0.179509
599.370900 0.181456
599.598800 0.176872
599.826700 0.172196
600.054600 0.182741
600.282500 0.177985
600.510500 0.175876
600.738400 0.172248
600.966400 0.180999
601.194400 0.167635
601.422300 0.158264
601.650300 0.166136
601.878300 0.160293
602.106400 0.175942
602.334400 0.173489
602.562400 0.173887
602.790500 0.178735
603.018500 0.157443
603.246600 0.176944
603.474700 0.171261
603.702800 0.174480
603.930900 0.168067
604.159000 0.172186
604.387100 0.173246
604.615200 0.172909
604.843400 0.174329
605.071500 0.174460
605.299700 0.165126
605.527900 0.164180
605.756100 0.167732
605.984300 0.169241
606.212500 0.159808
606.440700 0.160100
606.668900 0.162324
606.897200 0.152729
607.125400 0.154825
607.353700 0.163775
607.581900 0.162912
607.810200 0.166797
608.038500 0.162470
608.266800 0.160394
608.495100 0.159927
608.723500 0.152048
608.951800 0.161334
609.180100 0.160185
609.408500 0.176101
609.636900 0.170852
609.865300 0.161776
610.093600 0.172655
610.322000 0.161128
610.550500 0.164756
610.778900 0.160458
611.007300 0.162804
611.235700 0.165914
611.464200 0.165102
611.692700 0.168517
611.921100 0.157337
612.149600 0.166307
612.378100 0.164261
612.606600 0.176463
612.835100 0.179630
613.063700 0.176739
613.292200 0.166388
613.520800 0.159102
613.749300 0.173236
613.977900 0.177220
614.206500 0.161338
614.435100 0.162741
614.663700 0.164385
614.892300 0.172818
615.120900 0.161833
615.349500 0.161909
615.578200 0.178896
615.806800 0.150079
616.035500 0.168300
616.264200 0.170393
616.492900 0.162201
616.721600 0.164072
616.950300 0.166467
617.179000 0.145996
617.407700 0.171301
617.636500 0.160595
617.865200 0.163152
618.094000 0.173338
618.322700 0.161250
618.551500 0.136366
618.780300 0.159690
619.009100 0.154623
619.237900 0.162610
619.466700 0.171278
619.695600 0.169176
619.924400 0.165916
620.153300 0.169457
620.382100 0.148552
620.611000 0.137605
620.839900 0.147983
621.068800 0.176968
621.297700 0.164204
621.526600 0.143801
621.755600 0.155793
621.984500 0.154683
622.213500 0.161719
622.442400 0.146722
622.671400 0.170246
622.900400 0.144358
623.129400 0.166773
623.358400 0.176136
623.587400 0.158515
623.816400 0.141029
624.045400 0.162278
624.274500 0.159679
624.503500 0.148047
624.732600 0.143448
624.961700 0.170415
625.190800 0.147862
625.419900 0.140372
625.649000 0.180053
625.878100 0.150690
626.107200 0.153198
626.336400 0.144462
626.565500 0.165133
626.794700 0.168194
627.023800 0.150097
627.253000 0.173662
627.482200 0.167591
627.711400 0.158848
627.940600 0.177589
628.169800 0.162557
628.399100 0.151997
628.628300 0.156219
628.857600 0.158428
629.086800 0.156302
629.316100 0.159963
629.545400 0.142516
629.774700 0.160081
630.004000 0.156524
630.233300 0.150570
630.462600 0.142393
630.692000 0.157429
630.921300 0.156803
631.150700 0.164260
631.380100 0.166697
631.609400 0.156048
631.838800 0.169180
632.068200 0.158356
632.297600 0.155264
632.527100 0.153486
632.756500 0.156230
632.985900 0.156327
633.215400 0.171925
633.444800 0.157692
633.674300 0.142307
633.903800 0.132467
634.133300 0.167817
634.362800 0.152560
634.592300 0.167977
634.821800 0.151919
635.051400 0.186597
635.280900 0.133773
635.510500 0.133863
635.740000 0.161910
635.969600 0.154767
636.199200 0.149084
636.428800 0.159187
636.658400 0.144119
636.888000 0.141970
637.117700 0.150408
637.347300 0.152421
637.577000 0.173493
637.806600 0.175949
638.036300 0.143277
638.266000 0.154483
638.495700 0.160806
638.725400 0.139024
638.955100 0.146974
639.184800 0.143375
639.414500 0.160506
639.644300 0.159627
639.874000 0.164843
640.103800 0.173829
640.333600 0.137897
640.563300 0.132333
640.793100 0.148748
641.022900 0.129838
641.252800 0.175484
641.482600 0.185062
641.712400 0.141003
641.942300 0.129959
642.172100 0.137628
642.402000 0.131484
642.631900 0.151240
642.861700 0.163036
643.091600 0.181842
643.321600 0.125240
643.551500 0.119069
643.781400 0.149416
644.011300 0.167956
644.241300 0.169758
644.471200 0.138863
644.701200 0.112417
644.931200 0.171054
645.161200 0.134180
645.391200 0.162855
645.621200 0.137373
645.851200 0.111539
646.081200 0.097567
646.311300 0.147039
646.541300 0.195924
646.771400 0.117160
647.001500 0.142493
647.231600 0.129647
647.461600 0.188195
647.691800 0.143006
647.921900 0.085842
648.152000 0.155570
648.382100 0.126357
648.612300 0.141381
648.842400 0.164088
649.072600 0.132512
649.302800 0.127824
649.532900 0.147409
649.763100 0.113897
649.993300 0.117319
650.223600 0.154796
650.453800 0.144355
650.684000 0.121848
650.914300 0.152724
651.144500 0.161990
651.374800 0.164591
651.605100 0.182088
651.835400 0.137286
652.065700 0.160968
652.296000 0.136514
652.526300 0.120665
652.756600 0.123245
652.987000 0.152216
653.217300 0.100189
653.447700 0.136201
653.678000 0.148764
653.908400 0.154673
654.138800 0.148327
654.369200 0.154677
654.599600 0.183873
654.830000 0.133706
655.060500 0.205835
655.290900 0.230036
655.521300 0.216257
655.751800 0.157920
655.982300 0.032663
656.212800 0.008892
656.443300 0.017421
656.673800 0.035230
656.904300 0.106281
657.134800 0.162979
657.365300 0.164198
657.595900 0.170686
657.826400 0.173676
658.057000 0.176421
658.287500 0.176324
658.518100 0.179970
658.748700 0.175942
658.979300 0.182726
659.209900 0.218124
659.440600 0.254948
659.671200 0.265032
659.901800 0.261251
660.132500 0.236606
660.363200 0.211352
660.593800 0.187964
660.824500 0.175179
661.055200 0.151899
661.285900 0.170812
661.516600 0.130086
661.747400 0.159124
661.978100 0.110589
662.208800 0.155930
662.439600 0.137625
662.670400 0.135390
662.901100 0.198022
663.131900 0.111307
663.362700 0.136365
663.593500 0.121360
663.824300 0.184939
664.055200 0.135053
664.286000 0.152447
664.516800 0.143490
664.747700 0.158810
664.978600 0.114984
665.209400 0.120805
665.440300 0.141612
665.671200 0.137617
665.902100 0.165061
666.133000 0.117772
666.364000 0.114711
666.594900 0.137690
666.825900 0.164162
667.056800 0.129919
667.287800 0.174545
667.518800 0.082362
667.749700 0.134682
667.980700 0.181827
668.211700 0.123856
668.442800 0.153947
668.673800 0.167763
668.904800 0.103182
669.135900 0.180745
669.366900 0.133697
669.598000 0.156044
669.829100 0.113072
670.060200 0.154236
670.291300 0.139959
670.522400 0.148240
670.753500 0.172211
670.984600 0.135203
671.215700 0.125979
671.446900 0.177054
671.678100 0.169579
671.909200 0.156675
672.140400 0.127477
672.371600 0.152343
672.602800 0.131334
672.834000 0.133228
673.065200 0.117398
673.296400 0.139412
673.527700 0.127014
673.758900 0.125689
673.990200 0.123015
674.221400 0.125891
674.452700 0.138818
674.684000 0.143564
674.915300 0.156344
675.146600 0.150664
675.377900 0.110818
675.609300 0.134810
675.840600 0.164462
676.071900 0.154068
676.303300 0.129977
676.534700 0.131134
676.766100 0.111186
676.997400 0.125886
677.228800 0.142026
677.460200 0.125294
677.691700 0.127826
677.923100 0.111931
678.154500 0.117946
678.386000 0.131114
678.617400 0.128107
678.848900 0.148975
679.080400 0.122205
679.311900 0.178598
679.543400 0.099177
679.774900 0.131591
680.006400 0.143400
680.237900 0.152333
680.469400 0.122483
680.701000 0.153077
680.932500 0.133401
681.164100 0.152746
681.395700 0.167099
681.627300 0.173025
681.858900 0.131961
682.090500 0.140422
682.322100 0.123404
682.553700 0.124774
682.785400 0.143663
683.017000 0.155920
683.248700 0.140556
683.480300 0.125801
683.712000 0.118230
683.943700 0.175146
684.175400 0.156138
684.407100 0.147198
684.638800 0.096913
684.870500 0.152807
685.102300 0.168805
685.334000 0.145597
685.565800 0.169302
685.797500 0.150203
686.029300 0.116414
686.261100 0.161449
686.492900 0.112363
686.724700 0.120315
686.956500 0.106441
687.188300 0.151093
687.420200 0.162355
687.652000 0.126172
687.883800 0.171896
688.115700 0.134790
688.347600 0.122364
688.579500 0.137241
688.811400 0.151907
689.043300 0.153848
689.275200 0.117062
689.507100 0.147349
689.739000 0.139618
689.971000 0.135797
690.202900 0.131142
690.434900 0.126695
690.666900 0.142958
690.898800 0.163798
691.130800 0.135863
691.362800 0.151639
691.594800 0.127474
691.826900 0.153422
692.058900 0.156094
692.290900 0.162939
692.523000 0.139245
692.755000 0.159676
692.987100 0.160008
693.219200 0.125621
693.451300 0.136555
693.683400 0.145971
693.915500 0.158141
694.147600 0.156856
694.379700 0.136568
694.611900 0.170830
694.844000 0.184052
695.076200 0.118348
695.308300 0.136812
695.540500 0.143982
695.772700 0.122779
696.004900 0.160141
696.237100 0.139936
696.469300 0.149280
696.701600 0.155727
696.933800 0.134153
697.166000 0.112964
697.398300 0.155261
697.630600 0.105600
697.862800 0.149293
698.095100 0.134858
698.327400 0.135773
698.559700 0.107746
698.792000 0.129149
699.024300 0.123633
699.256700 0.153430
699.489000 0.157102
699.721400 0.151204
699.953700 0.136927
700.186100 0.122836
700.418500 0.133032
700.650900 0.163383
700.883300 0.162593
701.115700 0.133070
701.348100 0.116122
701.580600 0.163464
701.813000 0.147076
702.045400 0.116708
702.277900 0.168061
702.510400 0.123200
702.742900 0.106446
702.975300 0.108342
703.207800 0.154777
703.440300 0.159942
703.672900 0.171223
703.905400 0.147426
704.137900 0.132537
704.370500 0.103899
704.603000 0.126665
704.835600 0.111604
705.068200 0.125907
705.300800 0.111837
705.533400 0.170160
705.766000 0.124677
705.998600 0.116471
706.231200 0.142250
706.463800 0.167929
706.696500 0.125516
706.929100 0.084490
707.161800 0.082871
707.394500 0.142975
707.627200 0.130038
707.859900 0.163931
708.092600 0.166276
708.325300 0.136197
708.558000 0.132849
708.790700 0.138026
709.023500 0.159279
709.256200 0.157180
709.489000 0.153772
709.721700 0.128678
709.954500 0.170885
710.187300 0.085641
710.420100 0.140805
710.652900 0.075297
710.885700 0.105797
711.118600 0.133960
711.351400 0.106074
711.584200 0.142590
711.817100 0.127673
712.050000 0.100019
712.282800 0.089294
712.515700 0.140038
712.748600 0.113433
712.981500 0.121108
713.214400 0.156355
713.447400 0.088668
713.680300 0.111977
713.913200 0.129824
714.146200 0.118897
714.379100 0.130953
714.612100 0.105492
714.845100 0.143987
715.078100 0.131806
715.311100 0.129688
715.544100 0.154927
715.777100 0.132150
716.010200 0.168910
716.243200 0.129898
716.476200 0.169017
716.709300 0.137077
716.942400 0.147049
717.175400 0.099405
717.408500 0.149100
717.641600 0.105195
717.874700 0.137166
718.107800 0.140915
718.341000 0.150742
718.574100 0.123115
718.807200 0.168426
719.040400 0.150562
719.273600 0.116204
719.506700 0.146914
719.739900 0.125997
719.973100 0.101210
720.206300 0.115758
720.439500 0.120412
720.672700 0.129767
720.906000 0.173753
721.139200 0.089284
721.372500 0.151318
721.605700 0.156878
721.839000 0.142205
722.072300 0.116996
722.305500 0.111575
722.538800 0.134929
722.772100 0.103693
723.005500 0.109257
723.238800 0.111480
723.472100 0.094089
723.705500 0.163769
723.938800 0.100512
724.172200 0.158624
724.405600 0.127668
724.638900 0.149281
724.872300 0.084013
725.105700 0.139815
725.339100 0.151180
725.572600 0.145311
725.806000 0.106933
726.039400 0.146948
726.272900 0.131930
726.506300 0.147557
726.739800 0.157018
726.973300 0.146141
727.206800 0.143516
727.440300 0.126157
727.673800 0.163413
727.907300 0.125355
728.140800 0.142449
728.374300 0.160854
728.607900 0.116049
728.841400 0.111663
729.075000 0.135868
729.308600 0.131986
729.542100 0.127370
729.775700 0.128115
730.009300 0.106273
730.242900 0.117819
730.476600 0.178227
730.710200 0.160897
730.943800 0.133601
731.177500 0.132775
731.411100 0.136515
731.644800 0.119044
731.878500 0.143301
732.112200 0.106740
732.345800 0.147498
732.579500 0.128363
732.813300 0.123534
733.047000 0.147712
733.280700 0.157231
733.514500 0.118144
733.748200 0.125850
733.982000 0.159705
734.215700 0.144199
734.449500 0.140516
734.683300 0.147233
734.917100 0.146876
735.150900 0.137342
735.384700 0.146712
735.618500 0.106908
735.852400 0.153460
736.086200 0.159055
736.320100 0.132439
736.553900 0.175454
736.787800 0.136184
737.021700 0.110383
737.255600 0.139569
737.489500 0.137125
737.723400 0.127881
737.957300 0.121177
738.191200 0.160564
738.425200 0.103006
738.659100 0.169172
738.893100 0.132056
739.127100 0.167177
739.361000 0.157765
739.595000 0.148495
739.829000 0.126784
740.063000 0.097692
740.297000 0.112789
740.531000 0.123757
740.765100 0.143842
740.999100 0.139836
741.233200 0.153130
741.467200 0.136419
741.701300 0.117462
741.935400 0.166631
742.169500 0.120953
742.403600 0.140225
742.637700 0.113212
742.871800 0.117957
743.105900 0.087042
743.340000 0.121894
743.574200 0.118595
743.808300 0.107930
744.042500 0.100990
744.276700 0.118235
744.510800 0.116077
744.745000 0.118381
744.979200 0.194421
745.213400 0.161922
745.447700 0.173577
745.681900 0.075075
745.916100 0.132433
746.150400 0.137500
746.384600 0.152863
746.618900 0.128033
746.853200 0.152362
747.087400 0.152592
747.321700 0.109879
747.556000 0.124675
747.790300 0.137951
748.024700 0.070962
748.259000 0.094349
748.493300 0.115754
748.727700 0.116654
748.962000 0.139990
749.196400 0.102001
749.430800 0.147131
749.665200 0.144382
749.899500 0.164840
750.133900 0.124996
750.368400 0.137214
750.602800 0.087829
750.837200 0.127309
751.071700 0.118290
751.306100 0.168654
751.540600 0.149124
751.775000 0.146995
752.009500 0.107677
752.244000 0.101949
752.478500 0.104128
752.713000 0.162307
752.947500 0.117744
753.182000 0.116438
753.416600 0.125325
753.651100 0.128079
753.885600 0.123140
754.120200 0.135930
754.354800 0.119272
754.589400 0.138458
754.823900 0.111891
755.058500 0.127034
755.293100 0.137031
755.527800 0.146810
755.762400 0.113022
755.997000 0.121226
756.231700 0.136306
756.466300 0.118064
756.701000 0.147679
756.935600 0.129838
757.170300 0.118291
757.405000 0.170374
757.639700 0.135884
757.874400 0.155965
758.109100 0.151910
758.343800 0.155432
758.578600 0.153051
758.813300 0.137124
759.048100 0.139771
759.282800 0.116727
759.517600 0.143223
759.752400 0.131415
759.987200 0.140870
760.222000 0.110745
760.456800 0.157539
760.691600 0.137409
760.926400 0.144288
761.161300 0.126972
761.396100 0.137300
761.631000 0.130931
761.865800 0.180410
762.100700 0.129185
762.335600 0.151266
762.570500 0.150474
762.805400 0.101339
763.040300 0.123608
763.275200 0.103051
763.510100 0.130659
763.745000 0.148273
763.980000 0.141053
764.214900 0.094083
764.449900 0.119080
764.684900 0.130077
764.919800 0.143068
765.154800 0.129157
765.389800 0.124724
765.624800 0.149426
765.859900 0.113617
766.094900 0.145394
766.329900 0.122636
766.565000 0.132871
766.800000 0.113439
767.035100 0.125991
767.270100 0.123206
767.505200 0.137635
767.740300 0.131907
767.975400 0.145392
768.210500 0.139494
768.445600 0.130212
768.680800 0.125606
768.915900 0.161309
769.151000 0.135118
769.386200 0.115955
769.621400 0.137021
769.856500 0.155948
770.091700 0.112464
770.326900 0.106287
770.562100 0.134467
770.797300 0.124509
771.032500 0.088305
771.267700 0.120113
771.503000 0.116331
771.738200 0.140905
771.973500 0.110815
772.208700 0.131873
772.444000 0.147497
772.679300 0.127812
772.914600 0.123323
773.149900 0.092467
773.385200 0.123859
773.620500 0.139679
773.855800 0.148501
774.091100 0.116036
774.326500 0.157318
774.561800 0.151825
774.797200 0.162955
775.032600 0.166996
775.267900 0.129273
775.503300 0.136539
775.738700 0.142831
775.974100 0.134418
776.209500 0.138943
776.445000 0.131047
776.680400 0.121722
776.915800 0.143627
777.151300 0.094172
777.386800 0.150551
777.622200 0.132343
777.857700 0.127460
778.093200 0.132674
778.328700 0.155618
778.564200 0.132118
778.799700 0.120628
779.035200 0.131009
779.270700 0.117117
779.506300 0.119094
779.741800 0.121293
779.977400 0.106071
780.213000 0.150506
780.448500 0.113384
780.684100 0.153958
780.919700 0.132728
781.155300 0.118557
781.390900 0.134855
781.626500 0.111546
781.862200 0.163755
782.097800 0.160782
782.333500 0.137224
782.569100 0.141548
782.804800 0.110649
783.040500 0.112666
783.276100 0.150154
783.511800 0.156582
783.747500 0.141187
783.983200 0.113759
784.219000 0.122929
784.454700 0.171846
784.690400 0.143597
784.926200 0.185967
785.161900 0.123247
785.397700 0.104627
785.633500 0.112492
785.869200 0.133521
786.105000 0.153843
786.340800 0.119902
786.576600 0.095027
786.812400 0.120973
787.048300 0.112446
787.284100 0.147694
787.519900 0.108934
787.755800 0.123618
787.991700 0.162365
788.227500 0.138142
788.463400 0.104878
788.699300 0.130753
788.935200 0.114109
789.171100 0.137985
789.407000 0.078591
789.642900 0.175624
789.878900 0.144358
790.114800 0.120798
790.350700 0.090626
790.586700 0.127771
790.822700 0.128955
791.058600 0.113463
791.294600 0.139723
791.530600 0.137152
791.766600 0.141751
792.002600 0.129974
792.238700 0.149827
792.474700 0.160923
792.710700 0.108108
792.946800 0.079544
793.182800 0.133022
793.418900 0.126728
793.655000 0.146300
793.891000 0.155197
794.127100 0.132932
794.363200 0.124304
794.599300 0.104315
794.835500 0.130398
795.071600 0.165343
795.307700 0.131470
795.543900 0.135632
795.780000 0.132744
796.016200 0.124532
796.252300 0.153234
796.488500 0.170412
796.724700 0.173748
796.960900 0.150929
797.197100 0.153739
797.433300 0.130207
797.669500 0.148219
797.905800 0.166085
798.142000 0.139684
798.378300 0.115397
798.614500 0.143503
798.850800 0.108810
799.087100 0.161776
799.323300 0.131931
799.559600 0.105764
799.795900 0.115483
800.032200 0.136111
800.268600 0.100219
800.504900 0.134137
800.741200 0.118334
800.977600 0.120186
801.213900 0.153949
801.450300 0.180667
801.686700 0.144344
801.923000 0.146717
802.159400 0.149755
802.395800 0.124835
802.632200 0.164109
802.868600 0.092344
803.105100 0.153717
803.341500 0.156916
803.577900 0.161419
803.814400 0.144727
804.050800 0.103574
804.287300 0.182494
804.523800 0.125446
804.760300 0.207059
804.996800 0.169070
805.233300 0.131663
805.469800 0.116578
805.706300 0.159118
805.942800 0.124872
806.179400 0.105953
806.415900 0.117825
806.652500 0.131967
806.889000 0.203617
807.125600 0.117677
807.362200 0.097888
807.598800 0.126281
807.835400 0.097888
808.072000 0.107320
808.308600 0.137783
808.545200 0.101433
808.781800 0.105015
809.018500 0.116735
809.255100 0.108934
809.491800 0.149701
809.728400 0.104284
809.965100 0.124801
810.201800 0.152216
810.438500 0.103685
810.675200 0.129505
810.911900 0.174327
811.148600 0.121058
811.385300 0.079998
811.622100 0.139942
811.858800 0.096426
812.095600 0.091596
812.332300 0.143780
812.569100 0.159411
812.805900 0.142244
813.042700 0.101676
813.279500 0.055395
813.516300 0.125705
813.753100 0.166232
813.989900 0.102752
814.226700 0.128768
814.463600 0.118252
814.700400 0.148325
814.937300 0.142883
815.174200 0.084222
815.411000 0.069109
815.647900 0.070598
815.884800 0.085289
816.121700 0.102126
816.358600 0.157770
816.595500 0.142121
816.832400 0.110443
817.069400 0.116903
817.306300 0.169453
817.543300 0.095988
817.780200 0.103127
818.017200 0.115715
818.254200 0.156792
818.491200 0.055560
818.728200 0.098671
818.965200 0.138943
819.202200 0.116615
819.439200 0.122320
819.676200 0.053467
819.913300 0.132648
820.150300 0.155148
820.387400 0.172153
820.624400 0.215327
820.861500 0.144409
821.098600 0.151332
821.335700 0.173387
821.572700 0.072417
821.809900 0.134812
822.047000 0.146366
822.284100 0.112481
822.521200 0.045161
822.758400 0.132792
822.995500 0.096544
823.232700 0.204218
823.469800 0.148578
823.707000 0.080342
823.944200 0.062046
824.181400 0.138901
824.418600 0.083466
824.655800 0.108683
824.893000 0.138596
825.130200 0.076089
825.367500 0.091426
825.604700 0.099419
825.841900 0.104156
826.079200 0.113058
826.316500 0.108962
826.553700 0.188246
826.791000 0.150379
827.028300 0.141564
827.265600 0.112946
827.502900 0.167021
827.740200 0.140338
827.977600 0.068189
828.214900 0.077548
828.452200 0.192474
828.689600 0.245713
828.927000 0.072311
829.164300 0.039982
829.401700 0.100972
829.639100 0.169962
829.876500 0.057236
830.113900 0.142938
830.351300 0.106102
830.588700 0.084267
830.826100 0.081302
831.063600 0.066790
831.301000 0.109096
831.538500 0.143590
831.775900 0.077046
832.013400 0.110173
832.250900 0.148932
832.488400 0.199534
832.725900 0.093324
832.963400 0.119854
833.200900 0.150880
833.438400 0.060570
833.675900 0.153046
833.913500 0.117296
834.151000 0.136218
834.388600 0.124826
834.626100 0.020594
834.863700 0.199211
835.101300 0.125757
835.338900 0.137008
835.576500 0.076618
835.814100 0.091924
836.051700 0.044895
836.289300 0.225530
836.526900 0.074416
836.764600 0.143545
837.002200 0.181175
837.239900 0.191037
837.477500 0.090452
837.715200 0.066098
837.952900 0.153127
838.190600 0.173763
838.428300 0.067536
838.666000 0.337912
838.903700 0.155965
839.141400 0.313358
839.379100 0.095729
839.616900 0.200209
839.854600 0.187171
840.092400 0.074746
840.330200 0.141145
840.567900 0.091080
840.805700 0.234106
841.043500 0.150641
841.281300 0.089619
841.519100 0.022508
841.756900 0.011980
841.994700 0.006234
842.232600 0.192761
842.470400 0.127729
842.708200 0.107124
842.946100 0.067939
843.184000 0.095033
843.421800 0.094094
843.659700 0.048142
843.897600 -0.091689
844.135500 0.337381
844.373400 0.126958
844.611300 0.294559
844.849200 0.042350
845.087200 0.127062
845.325100 0.073770
845.563100 0.183641
845.801000 0.044586
846.039000 0.123800
846.277000 0.060684
846.514900 0.087572
846.752900 0.214885
846.990900 -0.002757
847.228900 -0.029108
847.466900 0.226520
847.705000 0.072206
847.943000 0.096843
848.181000 0.216055
848.419100 0.020411
848.657100 0.061899
848.895200 0.019297
849.133300 0.160635
849.371300 0.034482
849.609400 0.145703
849.847500 0.047382
850.085600 0.043196
850.323700 0.119670
850.561900 0.142309
850.800000 0.249230
851.038100 -0.031211
851.276300 0.031438
851.514400 0.200445
851.752600 0.071756
851.990800 0.099272
852.228900 -0.028136
852.467100 0.147929
852.705300 0.055791
852.943500 0.170778
853.181700 0.061607
853.420000 0.122547
853.658200 0.087790
853.896400 0.109493
854.134700 0.140337
854.372900 0.120804
854.611200 0.119978
854.849500 0.141988
855.087700 0.094504
855.326000 0.192663
855.564300 0.143536
855.802600 0.122020
856.040900 0.194734
856.279200 0.131627
856.517600 0.132527
856.755900 0.103781
856.994200 0.128945
857.232600 0.092320
857.471000 0.103720
857.709300 0.138933
857.947700 0.087567
858.186100 0.170133
858.424500 0.086491
858.662900 0.183092
858.901300 0.181135
859.139700 0.093457
859.378100 0.075879
859.616600 0.072780
859.855000 0.051607
860.093500 0.184734
860.331900 0.043281
860.570400 0.104639
860.808900 0.107415
861.047300 0.119036
861.285800 0.140741
861.524300 0.385859
861.762800 0.038796
862.001300 -0.039996
862.239900 0.121567
862.478400 0.195285
862.716900 0.123500
862.955500 0.051100
863.194000 0.079597
863.432600 0.143922
863.671200 0.132782
863.909800 0.142193
864.148300 -0.015626
864.386900 0.151647
864.625500 0.173494
864.864200 0.073016
865.102800 0.048261
865.341400 0.219685
865.580000 0.067642
865.818700 0.127387
866.057300 -0.020831
866.296000 0.053224
866.534700 0.031703
866.773300 0.108838
867.012000 0.045174
867.250700 0.022469
867.489400 0.077130
867.728100 -0.176883
867.966900 0.213626
868.205600 0.061545
868.444300 0.063783
868.683100 0.082858
868.921800 0.196845
869.160600 0.172126
869.399300 -0.000788
869.638100 0.125947
869.876900 0.137334
870.115700 0.059127
870.354500 0.030955
870.593300 0.192114
870.832100 0.130005
871.070900 -0.029704
871.309700 0.384121
871.548600 0.137837
871.787400 0.053078
872.026300 0.049743
872.265100 0.171457
872.504000 0.016452
872.742900 -0.023558
872.981800 0.112678
873.220700 0.167265
873.459600 0.108898
873.698500 0.144737
873.937400 0.220891
874.176300 0.071588
874.415300 0.006652
874.654200 0.249169
874.893200 0.132276
875.132100 0.012880
875.371100 0.110840
875.610100 0.109561
875.849100 0.133497
876.088000 0.112953
876.327000 0.090859
876.566100 0.129559
876.805100 0.070208
877.044100 0.045867
877.283100 0.024617
877.522200 -0.038813
877.761200 0.203739
878.000300 0.169119
878.239300 0.121276
878.478400 0.091287
878.717500 0.073163
878.956600 0.289472
879.195700 0.259387
879.434800 0.046122
879.673900 0.050397
879.913000 0.151734
880.152100 0.112343
880.391300 0.148507
880.630400 0.077835
880.869600 0.208893
881.108700 0.078151
881.347900 0.067490
881.587100 0.118836
881.826200 0.064164
882.065400 0.052496
882.304600 0.132805
882.543800 0.056946
882.783100 0.175378
883.022300 0.241004
883.261500 -0.060573
883.500700 0.184737
883.740000 0.046662
883.979200 0.088927
884.218500 0.053413
884.457800 0.046879
884.697100 0.064317
884.936300 0.135739
885.175600 0.077012
885.414900 0.156769
885.654200 0.122432
885.893600 0.128507
886.132900 0.097374
886.372200 0.051965
886.611600 0.065776
886.850900 0.038420
887.090300 0.025463
887.329600 0.117428
887.569000 -0.016285
887.808400 0.097367
888.047800 -0.048890
888.287200 0.077257
888.526600 0.037603
888.766000 -0.005848
889.005400 0.120688
889.244800 0.102223
889.484300 -0.103199
889.723700 0.203139
889.963200 0.256456
890.202600 0.090322
890.442100 0.040328
890.681600 0.078068
890.921100 0.190679
891.160600 0.160983
891.400100 -0.008663
891.639600 0.283609
891.879100 0.212655
892.118600 0.082434
892.358100 0.129521
892.597700 0.180577
892.837200 0.244764
893.076800 0.096231
893.316300 0.045549
893.555900 0.127105
893.795500 0.276632
894.035100 0.139829
894.274700 0.193999
894.514300 0.168563
894.753900 0.047130
894.993500 0.184853
895.233100 0.109853
895.472700 0.113741
895.712400 0.164753
895.952000 0.204865
896.191700 0.040696
896.431400 0.288136
896.671000 0.187905
896.910700 0.115300
897.150400 0.162805
897.390100 0.129116
897.629800 0.052343
897.869500 0.031164
898.109200 0.064042
898.348900 0.090189
898.588700 0.285767
898.828400 0.076403
899.068200 0.247226
899.307900 0.000167
899.547700 0.152672
899.787500 0.035040
900.027200 -0.109502
900.267000 0.318043
900.506800 0.223770
900.746600 0.033365
900.986400 0.120095
901.226300 0.021062
901.466100 0.056094
901.705900 0.065825
901.945800 0.051975
902.185600 0.116473
902.425500 0.067703
902.665400 0.090355
902.905200 0.276423
903.145100 0.046102
903.385000 0.048382
903.624900 0.116378
903.864800 0.042429
904.104700 -0.043141
904.344600 -0.012806
904.584600 0.028450
904.824500 0.029551
905.064400 0.151072
905.304400 0.312464
905.544400 0.007072
905.784300 0.076942
906.024300 0.090785
906.264300 0.086439
906.504300 0.042161
906.744300 0.056919
906.984300 -0.051086
907.224300 0.114660
907.464300 0.051123
907.704300 0.199548
907.944400 0.025124
908.184400 0.003926
908.424500 0.024344
908.664500 0.136479
908.904600 0.046374
909.144700 0.001297
909.384700 0.191271
909.624800 -0.125997
909.864900 0.036235
910.105000 0.056006
910.345200 -0.153295
910.585300 0.144683
910.825400 0.171064
911.065500 0.327012
911.305700 0.221001
911.545800 0.197677
911.786000 0.007595
912.026200 -0.072335
912.266300 0.200896
912.506500 0.083312
912.746700 0.033545
912.986900 -0.008101
913.227100 0.156263
913.467300 0.108419
913.707500 -0.046122
913.947800 0.055845
914.188000 0.132717
914.428300 -0.062881
914.668500 0.460390
914.908800 0.168252
915.149000 0.139211
915.389300 0.262261
915.629600 0.087323
915.869900 0.244607
916.110200 0.094618
916.350500 -0.019289
916.590800 0.074719
916.831100 0.067050
917.071400 0.056971
917.311800 0.057659
917.552100 0.174050
917.792500 0.090041
918.032800 0.201616
918.273200 0.085031
918.513600 0.097019
918.753900 0.134489
918.994300 0.277662
919.234700 0.110479
919.475100 0.190244
919.715500 0.011001
919.956000 0.104673
920.196400 0.039398
920.436800 0.016040
920.677300 0.039800
920.917700 0.120384
921.158200 0.338724
921.398600 0.140313
921.639100 0.191414
921.879600 -0.158439
922.120100 0.171387
922.360600 0.191218
922.601100 -0.032405
922.841600 0.044149
923.082100 1.024056
923.322600 0.019013
923.563100 -0.102638
923.803700 0.283159
924.044200 0.227619
924.284800 -0.003311
924.525400 0.073308
924.765900 0.272580
925.006500 0.029344
925.247100 -0.092221
925.487700 -0.004591
925.728300 0.177156
925.968900 0.250076
926.209500 0.036300
926.450100 -0.095324
926.690800 0.230576
926.931400 0.188156
927.172000 -0.032591
927.412700 0.024013
927.653300 0.442748
927.894000 0.365495
928.134700 0.346181
928.375400 -0.063485
928.616100 0.282343
928.856800 0.085067
929.097500 -0.007449
929.338200 0.008139
929.578900 0.203505
929.819600 0.102013
930.060400 0.406841
930.301100 0.649036
930.541900 -0.090962
930.782600 0.423573
931.023400 0.911248
931.264200 0.390677
931.504900 0.575617
931.745700 0.024786
931.986500 -0.009070
932.227300 0.392917
932.468100 0.327241
932.708900 -0.031866
932.949800 -0.075368
933.190600 0.164837
933.431400 -0.034737
933.672300 -0.102282
933.913100 0.239897
934.154000 0.301751
934.394900 0.011281
934.635800 -0.224380
934.876600 -0.034475
935.117500 0.049117
935.358400 0.279482
935.599300 -0.055730
935.840300 -0.031133
936.081200 -0.022715
936.322100 -0.036921
936.563000 0.670458
936.804000 0.172330
937.044900 -0.247818
937.285900 0.108022
937.526900 0.320572
937.767800 0.166323
938.008800 0.030485
938.249800 0.310378
938.490800 -0.007654
938.731800 0.454357
938.972800 0.133732
939.213800 0.575910
939.454900 0.182414
939.695900 -0.032724
939.936900 -0.115140
940.178000 0.504183
940.419000 -0.132154
940.660100 0.288272
940.901200 -0.006104
941.142200 0.169521
941.383300 0.097647
941.624400 0.126573
941.865500 0.165161
942.106600 -0.050531
942.347700 -0.141666
942.588900 0.113604
942.830000 3.146128
943.071100 -0.299274
943.312300 0.272232
943.553400 0.281016
943.794600 0.210065
944.035700 0.286189
944.276900 -0.209518
944.518100 0.182515
944.759300 0.557856
945.000500 -0.510888
945.241700 -0.031849
945.482900 3.272770
945.724100 0.333653
945.965300 -0.041879
946.206600 -0.364973
946.447800 0.452673
946.689100 -0.128220
946.930300 -0.849928
947.171600 -0.101226
947.412800 0.025616
947.654100 -0.032648
947.895400 0.823831
948.136700 -0.140945
948.378000 0.608081
948.619300 0.748716
948.860600 0.489315
949.101900 0.313481
949.343300 -0.216014
949.584600 0.459187
949.825900 0.257873
950.067300 0.662333
950.308600 -0.032283
950.550000 -0.019804
950.791400 -0.229901
951.032700 -0.333817
951.274100 -0.060060
951.515500 -0.068223
951.756900 -0.082805
951.998300 0.067771
952.239800 0.002421
952.481200 0.070945
952.722600 -0.066684
952.964000 -0.001531
953.205500 -0.104814
953.446900 0.118698
953.688400 0.160676
953.929900 0.169423
954.171300 -1.354629
954.412800 -0.160807
954.654300 -0.043638
954.895800 -0.281188
955.137300 0.229446
955.378800 -0.172722
955.620300 0.024370
955.861800 0.002275
956.103400 -0.026892
956.344900 -0.162396
956.586500 0.094641
956.828000 0.220938
957.069600 3.067071
957.311100 0.423450
957.552700 0.569673
957.794300 -0.041645
958.035900 -0.530407
958.277500 -0.476474
958.519100 -0.129225
958.760700 -0.165175
959.002300 -0.697347
959.243900 0.513360
959.485600 -0.042392
959.727200 0.090034
959.968800 -0.233734
960.210500 0.233405
960.452200 -0.270865
960.693800 -0.206403
960.935500 -3.051153
961.177200 0.178516
961.418900 -0.381015
961.660600 -0.116088
961.902300 -0.037813
962.144000 -0.186718
962.385700 -0.453081
962.627400 0.032851
962.869200 0.670113
963.110900 -0.070925
963.352700 2.840106
963.594400 0.409193
963.836200 -0.125916
964.077900 -0.139507
964.319700 3.145818
964.561500 0.743651
964.803300 -0.013039
965.045100 -0.121110
965.286900 0.138478
965.528700 0.413139
965.770500 -0.035304
966.012300 -0.262536
966.254200 -0.225343
966.496000 -0.682848
966.737900 0.446403
966.979700 -0.160730
967.221600 -0.305465
967.463400 0.369289
967.705300 0.222869
967.947200 -0.265743
968.189100 2.510545
968.431000 0.123566
968.672900 -0.037044
968.914800 -0.234859
969.156700 -0.449994
969.398700 0.049571
969.640600 -0.588272
969.882500 -0.187052
970.124500 0.038629
970.366400 0.020306
970.608400 0.043839
970.850400 0.415651
971.092300 2.890421
971.334300 0.082927
971.576300 -0.248165
971.818300 0.275491
972.060300 3.062958
972.302300 0.275950
972.544300 -0.489189
972.786400 0.249655
973.028400 0.386624
973.270400 0.124400
973.512500 0.354885
973.754500 3.218010
973.996600 -0.109730
974.238700 -0.046167
974.480700 -0.097153
974.722800 -0.005814
974.964900 -0.279511
975.207000 0.125468
975.449100 -0.832685
975.691200 -0.130363
975.933300 0.608186
976.175500 -2.895975
976.417600 0.052022
976.659700 -0.100484
976.901900 0.683146
977.144000 0.027620
977.386200 -0.483839
977.628300 0.087707
977.870500 0.088097
978.112700 2.776701
978.354900 -0.328513
978.597100 -0.004567
978.839300 3.206826
979.081500 0.056093
979.323700 -1.447158
979.565900 -0.208455
979.808200 1.216072
980.050400 0.031273
980.292600 3.008600
980.534900 -0.325420
980.777100 0.360616
981.019400 0.099604
981.261700 1.753966
981.504000 0.323173
981.746200 -1.294151
981.988500 3.013259
982.230800 0.559988
982.473100 0.372366
982.715500 0.247198
982.957800 -0.395728
983.200100 -0.186909
983.442400 -0.195520
983.684800 -0.047615
983.927100 -0.403604
984.169500 0.570453
984.411800 0.210582
984.654200 0.915324
984.896600 0.007969
985.139000 1.230449
985.381400 0.178017
985.623800 0.345854
985.866200 -0.004113
986.108600 -2.872156
986.351000 -0.139008
986.593400 -0.119817
986.835800 0.224148
987.078300 -0.316985
987.320700 0.196224
987.563200 -0.026838
987.805600 -0.329320
988.048100 0.680007
988.290600 -0.371837
988.533100 0.000000
988.775600 -0.027716
989.018000 0.281493
989.260500 3.086360
989.503100 -2.448706
989.745600 0.278754
989.988100 0.000000
990.230600 0.038420
990.473200 0.159533
990.715700 0.547561
990.958200 2.523746
991.200800 -0.380406
991.443400 -2.859739
991.685900 2.710117
991.928500 -3.042576
992.171100 2.158362
992.413700 -0.163559
992.656300 0.327883
992.898900 2.866287
993.141500 0.003640
993.384100 0.459310
993.626700 -0.083476
993.869400 -0.073362
994.112000 -0.478476
994.354700 0.512032
994.597300 3.030195
994.840000 -3.008174
995.082600 -0.193014
995.325300 -0.720382
995.568000 -0.304414
995.810700 2.127105
996.053400 -0.595511
996.296100 -0.385085
996.538800 0.102951
996.781500 0.980809
997.024200 -0.365755
997.267000 2.791691
997.509700 -0.116522
997.752400 0.809597
997.995200 1.001934
998.237900 0.165010
998.480700 0.279761
998.723500 -2.294466
998.966200 -0.033726
999.209000 0.000000
999.451800 -0.121590
999.694600 0.780203
999.937400 2.318063
1000.180200 0.041128
1000.423000 0.120945
1000.665900 2.907949
1000.908700 -0.584259
1001.151500 -0.443600
1001.394400 2.745075
1001.637200 -0.166315
1001.880100 -1.467361
1002.123000 0.229446
1002.365800 2.599883
1002.608700 -0.876329
1002.851600 -0.085847
1003.094500 -0.114491
1003.337400 2.217484
1003.580300 -2.859739
1003.823200 1.569875
1004.066100 2.945961
1004.309100 -0.199223
1004.552000 3.008600
1004.794900 -0.160602
1005.037900 3.129368
1005.280800 2.806180
1005.523800 3.183555
1005.766700 -0.334692
1006.009700 0.484982
1006.252700 -3.034227
1006.495700 -0.148033
1006.738700 -2.509203
1006.981700 -0.176091
1007.224700 -0.180572
1007.467700 0.561442
1007.710700 -0.560481
1007.953800 0.175316
1008.196800 -0.389085
1008.439800 0.633053
1008.682900 0.081305
1008.925900 0.803138
1009.169000 2.884229
1009.412100 -3.074816
1009.655100 -0.990530
1009.898200 0.010969
1010.141300 2.432969
1010.384400 -0.188013
1010.627500 -0.430230
1010.870600 0.039763
1011.113700 0.214204
1011.356800 -0.238983
1011.600000 1.591065
1011.843100 -0.553378
1012.086300 0.000000
1012.329400 2.907411
1012.572600 0.000000
1012.815700 -0.514731
1013.058900 -1.690196
1013.302100 -0.121590
1013.545200 2.960946
1013.788400 3.108227
1014.031600 0.000000
1014.274800 -0.137272
1014.518000 0.221948
1014.761300 0.080279
1015.004500 -3.118595
1015.247700 0.287304
1015.490900 0.000000
1015.734200 0.278854
1015.977400 -0.548881
1016.220700 -2.562293
1016.464000 -0.221727
1016.707200 -0.921267
1016.950500 -0.232262
1017.193800 -0.151236
1017.437100 2.562293
1017.680400 -0.031607
1017.923700 0.495884
1018.167000 0.599267
1018.410300 2.643453
1018.653600 0.303154
1018.896900 0.187818
1019.140300 0.183239
1019.383600 -0.255797
1019.627000 0.760520
1019.870300 -0.187830
1020.113700 -0.034456
1020.357100 -0.012523
1020.600400 2.853698
1020.843800 3.090258
1021.087200 0.777927
1021.330600 0.000000
1021.574000 0.561574
1021.817400 0.000000
1022.060800 -2.190332
1022.304200 -1.447158
1022.547700 0.269546
1022.791100 2.432969
1023.034500 0.021925
