# Wavelength	Absorbance
197.780200 0.043466
197.984200 0.396065
198.188200 0.480988
198.392200 0.551811
198.596300 0.206342
198.800300 -0.427792
199.004400 2.918555
199.208500 -0.185637
199.412600 0.014773
199.616800 2.768638
199.820900 -0.640127
200.025100 2.877947
200.229200 -0.726158
200.433400 3.008600
200.637600 2.745075
200.841800 0.845098
201.046100 0.046705
201.250300 0.529918
201.454600 3.220892
201.658900 2.096910
201.863100 0.381973
202.067400 2.760422
202.271800 0.459295
202.476100 2.896526
202.680500 0.770464
202.884800 0.528671
203.089200 0.359767
203.293600 -0.306849
203.498000 0.720159
203.702400 0.279555
203.906900 -0.802886
204.111300 0.000000
204.315800 1.020784
204.520300 3.062958
204.724800 0.169410
204.929300 2.396199
205.133800 3.093772
205.338400 2.820201
205.543000 3.171434
205.747500 2.682145
205.952100 0.409674
206.156700 3.034628
206.361400 -2.761928
206.566000 2.187521
206.770600 1.310870
206.975300 -0.451389
207.180000 -1.989958
207.384700 2.587711
207.589400 -3.051924
207.794100 0.028221
207.998900 0.565309
208.203600 0.255211
208.408400 0.588795
208.613200 2.820201
208.818000 0.012671
209.022800 2.414973
209.227600 0.145340
209.432500 2.907949
209.637300 2.752816
209.842200 2.294466
210.047100 -0.327805
210.252000 2.053078
210.456900 3.086360
210.661800 3.055378
210.866800 3.104828
211.071800 0.722470
211.276700 0.196141
211.481700 2.736397
211.686700 -0.367543
211.891800 2.480007
212.096800 1.143135
212.301800 2.890421
212.506900 0.670707
212.712000 2.965672
212.917100 0.226342
213.122200 -0.042734
213.327300 0.122595
213.532500 0.000000
213.737600 0.124490
213.942800 -0.521325
214.148000 0.179657
214.353200 0.000000
214.558400 -0.183711
214.763600 0.265290
214.968900 -0.474726
215.174100 3.104487
215.379400 -2.961895
215.584700 0.039420
215.790000 3.021603
215.995300 2.820201
216.200700 -0.184603
216.406000 -0.305362
216.611400 0.169410
216.816800 0.491362
217.022200 -0.713478
217.227600 -0.226452
217.433000 -0.324378
217.638400 0.704852
217.843900 -0.359238
218.049400 0.000000
218.254800 0.893064
218.460300 0.314873
218.665900 3.186674
218.871400 0.669851
219.076900 -0.000444
219.282500 2.960946
219.488100 0.020333
219.693600 1.829661
219.899200 3.267641
220.104900 3.055378
220.310500 -1.145481
220.516100 -2.745855
220.721800 -0.267723
220.927500 0.174068
221.133200 -0.107023
221.338900 -0.165812
221.544600 -0.512311
221.750300 3.183555
221.956100 2.907411
222.161800 2.338456
222.367600 0.348618
222.573400 2.643453
222.779200 -3.075547
222.985000 0.000000
223.190900 0.108430
223.396700 -0.227013
223.602600 0.290035
223.808500 0.354379
224.014400 0.511276
224.220300 2.935507
224.426200 -0.252408
224.632200 2.727541
224.838100 0.300471
225.044100 2.653213
225.250100 -0.297961
225.456100 2.653213
225.662100 2.632457
225.868100 2.127105
226.074200 0.663974
226.280200 -2.193125
226.486300 0.335072
226.692400 0.000000
226.898500 0.536737
227.104600 -0.188407
227.310700 1.055029
227.516900 0.158923
227.723000 -0.745151
227.929200 3.252853
228.135400 0.154693
228.341600 2.622214
228.547800 0.247290
228.754100 -0.094406
228.960300 -0.367271
229.166600 -2.655138
229.372900 -0.190349
229.579100 0.975477
229.785500 0.409674
229.991800 0.845098
230.198100 0.263844
230.404500 1.963788
230.610800 0.032152
230.817200 -3.240300
231.023600 0.378538
231.230000 0.552713
231.436400 0.853435
231.642900 -0.299783
231.849300 2.791691
232.055800 2.008600
232.262300 3.280123
232.468800 -0.422976
232.675300 1.224447
232.881800 -0.607482
233.088400 2.745075
233.294900 -0.014438
233.501500 1.194433
233.708100 -2.711807
233.914700 0.146297
234.121300 -2.807535
234.327900 -0.283241
234.534600 -0.139368
234.741300 3.097604
234.947900 0.437543
235.154600 0.406199
235.361300 3.122544
235.568000 0.136655
235.774800 0.805425
235.981500 0.505388
236.188300 -3.083144
236.395100 0.344427
236.601800 -2.807535
236.808700 -0.211073
237.015500 2.961421
237.222300 2.853698
237.429200 0.238348
237.636000 3.042969
237.842900 1.851258
238.049800 2.918555
238.256700 2.653213
238.463600 -0.192421
238.670600 2.970812
238.877500 0.135025
239.084500 0.000000
239.291500 -0.058990
239.498500 -0.483652
239.705500 -0.298059
239.912500 -1.206826
240.119500 1.690196
240.326600 -0.484529
240.533700 0.000000
240.740700 2.621176
240.947800 0.182804
241.154900 3.059185
241.362100 -0.217904
241.569200 2.632457
241.776400 1.522009
241.983500 2.783904
242.190700 0.477661
242.397900 -2.821514
242.605100 -0.522123
242.812400 0.075828
243.019600 0.759419
243.226900 2.710117
243.434100 2.913284
243.641400 0.437543
243.848700 -0.047105
244.056000 -2.482874
244.263400 2.653213
244.470700 3.082785
244.678100 3.082426
244.885400 2.945469
245.092800 0.974575
245.300200 -0.093852
245.507600 3.330008
245.715100 3.034628
245.922500 0.514241
246.130000 1.230449
246.337500 0.085257
246.544900 -0.193750
246.752400 0.216421
246.960000 3.165244
247.167500 1.358041
247.375000 0.000000
247.582600 3.025715
247.790200 1.845098
247.997800 0.350854
248.205400 0.321414
248.413000 0.110811
248.620600 0.114757
248.828300 0.318390
249.035900 3.030600
249.243600 0.050017
249.451300 3.282396
249.659000 3.192567
249.866700 3.168203
250.074500 3.226342
250.282200 0.807473
250.490000 0.040237
250.697800 -0.026365
250.905600 -0.327528
251.113400 -0.041810
251.321200 2.736397
251.529000 -0.625877
251.736900 0.694663
251.944700 -0.074113
252.152600 1.812468
252.360500 2.710117
252.568400 2.662758
252.776300 -0.522183
252.984300 0.016642
253.192200 -0.023599
253.400200 0.395927
253.608200 2.599883
253.816200 0.474860
254.024200 -0.293099
254.232200 2.414973
254.440200 0.000000
254.648300 -0.078812
254.856400 0.162492
255.064400 0.046810
255.272500 0.276091
255.480600 0.283315
255.688800 0.000000
255.896900 3.030195
256.105100 3.284882
256.313200 -0.564411
256.521400 0.019834
256.729600 0.895382
256.937800 3.171434
257.146000 0.603150
257.354300 0.000000
257.562500 3.204120
257.770800 -3.172019
257.979100 0.275223
258.187400 2.833784
258.395700 0.082785
258.604000 3.034628
258.812400 0.620225
259.020700 3.026125
259.229100 1.616651
259.437500 2.975891
259.645900 0.686499
259.854300 0.313856
260.062700 0.134699
260.271100 2.621176
260.479600 0.798751
260.688100 1.608050
260.896500 0.062802
261.105000 2.089905
261.313500 -0.580494
261.522100 3.142702
261.730600 2.945961
261.939200 -0.494332
262.147700 0.168381
262.356300 -0.089981
262.564900 2.536558
262.773500 0.608558
262.982200 0.337446
263.190800 -2.250420
263.399500 0.123682
263.608100 3.039017
263.816800 1.066146
264.025500 2.396199
264.234200 -0.783149
264.442900 2.053078
264.651700 3.097604
264.860400 -0.130334
265.069200 3.051153
265.278000 0.028443
265.486800 -0.150565
265.695600 -0.184228
265.904400 0.275990
266.113300 2.599883
266.322100 3.063333
266.531000 2.294466
266.739900 2.294466
266.948800 3.125806
267.157700 0.122868
267.366600 3.055378
267.575500 -0.333879
267.784500 -0.476713
267.993500 2.994757
268.202400 2.970812
268.411400 3.021603
268.620500 2.761176
268.829500 -0.448300
269.038500 -0.175001
269.247600 0.779966
269.456600 2.008600
269.665700 -0.094270
269.874800 2.907411
270.083900 0.358196
270.293100 -2.655138
270.502200 3.034628
270.711400 2.127105
270.920500 2.833784
271.129700 2.985426
271.338900 0.481133
271.548100 0.349542
271.757300 3.030195
271.966600 2.890421
272.175800 0.978756
272.385100 3.132580
272.594400 -0.104735
272.803700 0.124526
273.013000 -0.446172
273.222300 2.994757
273.431600 3.165244
273.641000 0.348846
273.850400 -0.119946
274.059700 2.945961
274.269100 0.619565
274.478500 2.950851
274.688000 0.801537
274.897400 2.866287
275.106900 -0.973601
275.316300 3.055378
275.525800 -0.023540
275.735300 -1.968483
275.944800 0.482798
276.154300 2.662758
276.363900 3.012837
276.573400 0.709772
276.783000 0.203744
276.992600 2.846955
277.202200 0.056492
277.411800 -0.219824
277.621400 -0.253824
277.831000 -0.040671
278.040700 0.292175
278.250300 2.820201
278.460000 0.593085
278.669700 -0.139128
278.879400 -0.706910
279.089100 2.691965
279.298900 2.929930
279.508600 0.063820
279.718400 3.272770
279.928100 0.000000
280.137900 1.085039
280.347700 -0.175078
280.557600 2.006704
280.767400 3.039017
280.977200 -0.274282
281.187100 0.000000
281.397000 3.089905
281.606900 -2.990783
281.816800 3.152288
282.026700 -0.866339
282.236600 2.935003
282.446600 2.924279
282.656500 -2.873321
282.866500 0.227025
283.076500 -0.863214
283.286500 0.460139
283.496500 3.030600
283.706500 0.294628
283.916600 2.866287
284.126600 0.845098
284.336700 2.966142
284.546800 1.633468
284.756900 0.084204
284.967000 -0.429605
285.177100 0.313804
285.387300 -2.821514
285.597400 0.086084
285.807600 -0.437561
286.017800 0.681462
286.228000 -2.729165
286.438200 3.171434
286.648400 2.940516
286.858700 3.265290
287.068900 2.760422
287.279200 2.846955
287.489500 -0.594052
287.699800 0.413110
287.910100 2.621176
288.120400 0.011845
288.330800 -0.806834
288.541100 0.504765
288.751500 -0.713465
288.961900 -0.254234
289.172300 0.000000
289.382700 0.039387
289.593100 -0.017665
289.803500 -2.612784
290.014000 0.390508
290.224500 0.928851
290.434900 0.000000
290.645400 0.272020
290.855900 -0.459392
291.066500 0.249051
291.277000 -0.186656
291.487500 -0.183185
291.698100 1.291517
291.908700 -0.868909
292.119300 3.059185
292.329900 0.235434
292.540500 2.728354
292.751100 2.956168
292.961800 -2.511883
293.172400 0.219611
293.383100 -2.298853
293.593800 2.994757
293.804500 2.495544
294.015200 0.598441
294.226000 0.000000
294.436700 0.234674
294.647500 0.615867
294.858200 3.074816
295.069000 0.309523
295.279800 -0.009459
295.490600 0.000000
295.701500 -0.031426
295.912300 0.173765
296.123200 0.764854
296.334000 -0.222180
296.544900 0.081786
296.755800 0.769106
296.966700 2.872156
297.177700 0.015012
297.388600 2.935003
297.599500 2.269513
297.810500 3.090258
298.021500 3.149219
298.232500 0.214128
298.443500 1.690196
298.654500 0.057951
298.865600 0.216786
299.076600 2.622214
299.287700 0.000000
299.498800 -0.102720
299.709900 0.312053
299.921000 0.559656
300.132100 -0.291794
300.343200 0.172148
300.554400 2.769377
300.765500 0.178837
300.976700 0.000000
301.187900 3.104487
301.399100 -0.345685
301.610300 0.435641
301.821500 3.364739
302.032800 0.311396
302.244100 3.017451
302.455300 0.022057
302.666600 3.063333
302.877900 0.079904
303.089200 2.357935
303.300600 -0.030517
303.511900 0.913907
303.723300 2.924279
303.934600 2.884795
304.146000 -2.075025
304.357400 2.432969
304.568800 0.989623
304.780300 3.192289
304.991700 -0.250812
305.203100 2.271842
305.414600 0.226643
305.626100 0.164132
305.837600 0.133309
306.049100 2.775974
306.260600 3.051153
306.472200 2.245513
306.683700 -0.063065
306.895300 0.276335
307.106900 0.396668
307.318400 3.034628
307.530100 0.256223
307.741700 -0.102841
307.953300 0.185798
308.165000 -3.035430
308.376600 0.753406
308.588300 0.548566
308.800000 3.034227
309.011700 0.580631
309.223400 0.318271
309.435100 2.450249
309.646900 0.871623
309.858600 0.442212
310.070400 0.399880
310.282200 -1.064725
310.494000 0.988277
310.705800 0.493342
310.917600 0.095452
311.129500 0.301030
311.341300 0.661969
311.553200 0.067808
311.765100 0.361098
311.977000 0.245625
312.188900 0.360616
312.400800 0.268672
312.612700 -0.299975
312.824700 3.292034
313.036600 0.177600
313.248600 0.638307
313.460600 0.079442
313.672600 3.275081
313.884600 0.743937
314.096700 2.599883
314.308700 3.475962
314.520800 3.104828
314.732800 0.789993
314.944900 3.146128
315.157000 0.310935
315.369200 0.740363
315.581300 0.064501
315.793400 2.653213
316.005600 3.226342
316.217700 0.360668
316.429900 0.573351
316.642100 3.168203
316.854300 -0.072066
317.066600 0.590124
317.278800 0.333995
317.491100 3.192289
317.703300 3.336260
317.915600 3.296446
318.127900 3.445760
318.340200 0.385797
318.552500 1.124939
318.764900 3.139249
318.977200 3.437592
319.189600 3.030195
319.401900 0.619789
319.614300 3.245019
319.826700 0.026451
320.039200 3.358886
320.251600 0.331672
320.464000 0.223655
320.676500 1.134956
320.889000 2.465383
321.101400 3.348889
321.313900 3.310268
321.526500 1.004916
321.739000 0.924791
321.951500 0.817764
322.164100 -0.013858
322.376600 0.870497
322.589200 0.335918
322.801800 1.270863
323.014400 0.419460
323.227000 0.533363
323.439700 3.437433
323.652300 0.858508
323.865000 1.032326
324.077700 0.596213
324.290400 3.310268
324.503100 0.280282
324.715800 3.399154
324.928500 0.973911
325.141200 3.384174
325.354000 0.970982
325.566800 3.389875
325.779600 0.281326
325.992400 0.314710
326.205200 3.542576
326.418000 3.474362
326.630800 0.483197
326.843700 3.659250
327.056600 2.524757
327.269400 0.782496
327.482300 0.197335
327.695200 0.376938
327.908200 3.508395
328.121100 3.453930
328.334000 0.278584
328.547000 3.636688
328.760000 2.548458
328.973000 0.705662
329.186000 0.818456
329.399000 0.700060
329.612000 1.102885
329.825100 3.485153
330.038100 0.756383
330.251200 3.572872
330.464300 1.045514
330.677400 0.704535
330.890500 3.739651
331.103600 3.526469
331.316700 0.967108
331.529900 1.146414
331.743100 0.343579
331.956200 3.661339
332.169400 1.195819
332.382600 1.270456
332.595900 1.490180
332.809100 0.911039
333.022300 0.278379
333.235600 3.633468
333.448900 3.655235
333.662200 2.132260
333.875500 3.666331
334.088800 0.772395
334.302100 2.263399
334.515400 3.647089
334.728800 0.834336
334.942200 3.626956
335.155500 0.497096
335.368900 3.756864
335.582300 0.514423
335.795800 0.517701
336.009200 3.743823
336.222700 3.666237
336.436100 3.725258
336.649600 0.712805
336.863100 3.676053
337.076600 3.787035
337.290100 0.789565
337.503600 3.672098
337.717200 1.702385
337.930700 3.722716
338.144300 0.819141
338.357900 3.656290
338.571500 0.475370
338.785100 3.703205
338.998700 0.891541
339.212400 1.516459
339.426000 3.712144
339.639700 0.568969
339.853300 3.765594
340.067000 3.741388
340.280700 0.793854
340.494500 3.790074
340.708200 0.804032
340.921900 2.842401
341.135700 0.867480
341.349500 3.731266
341.563300 0.580157
341.777100 3.818094
341.990900 3.831166
342.204700 3.816042
342.418500 1.021043
342.632400 3.830460
342.846300 3.839164
343.060100 3.693023
343.274000 1.131309
343.487900 3.871748
343.701900 0.642285
343.915800 3.793022
344.129700 0.628099
344.343700 3.778006
344.557700 2.029497
344.771700 1.245028
344.985700 3.914502
345.199700 0.937407
345.413700 1.011837
345.627700 3.783332
345.841800 2.013188
346.055900 0.945103
346.269900 0.749059
346.484000 2.421494
346.698100 2.871443
346.912300 1.260390
347.126400 3.906012
347.340600 1.264686
347.554700 1.293314
347.768900 3.886321
347.983100 3.942058
348.197300 2.031913
348.411500 1.823966
348.625700 0.839818
348.840000 0.685629
349.054200 1.583662
349.268500 3.952889
349.482800 3.888011
349.697100 3.921634
349.911400 3.877832
350.125700 3.910571
350.340000 1.398793
350.554400 0.984635
350.768700 3.912806
350.983100 0.865897
351.197500 1.177438
351.411900 0.975412
351.626300 1.364968
351.840700 0.816594
352.055200 1.276828
352.269600 3.959471
352.484100 1.172700
352.698600 1.196981
352.913100 0.821310
353.127600 1.120027
353.342100 1.409190
353.556600 1.482830
353.771200 2.530413
353.985800 3.943643
354.200300 1.057578
354.414900 1.219166
354.629500 1.714018
354.844100 1.085252
355.058800 1.841545
355.273400 1.316230
355.488100 3.989138
355.702700 1.000665
355.917400 2.461799
356.132100 1.034162
356.346800 3.982000
356.561500 1.947460
356.776300 3.974327
356.991000 1.521018
357.205800 1.352787
357.420600 1.079181
357.635300 3.982045
357.850100 1.145297
358.065000 1.401985
358.279800 3.980549
358.494600 1.617572
358.709500 4.012879
358.924300 1.492926
359.139200 3.084973
359.354100 1.423536
359.569000 1.625517
359.783900 3.987264
359.998900 3.957464
360.213800 1.769527
360.428800 4.072617
360.643800 3.982497
360.858700 1.199018
361.073700 4.040048
361.288800 4.042142
361.503800 4.026452
361.718800 1.075073
361.933900 1.174267
362.148900 1.404082
362.364000 3.994713
362.579100 1.932511
362.794200 0.830968
363.009300 1.729827
363.224500 4.031206
363.439600 4.024280
363.654800 1.289134
363.869900 1.001223
364.085100 4.019947
364.300300 1.175625
364.515500 1.992197
364.730800 4.062845
364.946000 4.055608
365.161200 1.336518
365.376500 4.086360
365.591800 1.064022
365.807100 1.227311
366.022400 0.805784
366.237700 1.422883
366.453000 1.528613
366.668400 4.089375
366.883700 0.965336
367.099100 4.077622
367.314500 4.085968
367.529900 4.111531
367.745300 1.772255
367.960700 1.169252
368.176100 4.093071
368.391600 1.280337
368.607000 1.521521
368.822500 1.437040
369.038000 1.438366
369.253500 1.227084
369.469000 1.533771
369.684500 4.136974
369.900100 1.538003
370.115600 1.219737
370.331200 0.873573
370.546800 1.068579
370.762400 1.385411
370.978000 1.346062
371.193600 0.951451
371.409200 1.346646
371.624900 1.861855
371.840500 4.181129
372.056200 4.129561
372.271900 4.101128
372.487600 4.180183
372.703300 4.129915
372.919000 4.120278
373.134800 4.137671
373.350500 1.458774
373.566300 4.154637
373.782000 1.778692
373.997800 3.215256
374.213600 1.258916
374.429400 1.176830
374.645300 1.319545
374.861100 1.069020
375.077000 2.224252
375.292800 2.705208
375.508700 0.982559
375.724600 2.353254
375.940500 4.218404
376.156400 4.224455
376.372400 1.464216
376.588300 4.218667
376.804300 4.234720
377.020300 4.247581
377.236200 1.050961
377.452200 4.269816
377.668200 1.671670
377.884300 4.260358
378.100300 1.578404
378.316400 1.329984
378.532400 4.271028
378.748500 4.301356
378.964600 1.490939
379.180700 2.009541
379.396800 4.318189
379.612900 1.234106
379.829100 4.308394
380.045200 1.523832
380.261400 1.016702
380.477600 4.319085
380.693800 2.571732
380.910000 4.341138
381.126200 1.305809
381.342400 1.512424
381.558700 1.068545
381.774900 4.288607
381.991200 1.260563
382.207500 1.585503
382.423800 2.088634
382.640100 4.341553
382.856400 4.341336
383.072800 2.462169
383.289100 1.224586
383.505500 1.557307
383.721900 1.210563
383.938200 1.800395
384.154600 1.345099
384.371100 2.280874
384.587500 1.321850
384.803900 4.366890
385.020400 1.494572
385.236800 4.356332
385.453300 1.150034
385.669800 4.340702
385.886300 1.648938
386.102800 4.360120
386.319400 1.363729
386.535900 1.860089
386.752500 1.876697
386.969000 1.884799
387.185600 1.209225
387.402200 4.400210
387.618800 1.187586
387.835500 1.510995
388.052100 4.417721
388.268700 1.866578
388.485400 1.103471
388.702100 4.414907
388.918800 1.384097
389.135500 1.560108
389.352200 1.503306
389.568900 1.672618
389.785600 1.284911
390.002400 4.385195
390.219200 1.153185
390.435900 1.439088
390.652700 1.245839
390.869500 4.427064
391.086300 1.381942
391.303200 4.430817
391.520000 1.041573
391.736900 2.366554
391.953700 1.080303
392.170600 1.493205
392.387500 1.126721
392.604400 1.285672
392.821300 1.215742
393.038300 1.109382
393.255200 1.161505
393.472200 1.273681
393.689100 1.327209
393.906100 1.082570
394.123100 1.257270
394.340100 1.198237
394.557200 1.243793
394.774200 1.121624
394.991200 1.169722
395.208300 1.308903
395.425400 1.056563
395.642500 1.245044
395.859600 1.047981
396.076700 1.098083
396.293800 1.111960
396.510900 1.123761
396.728100 1.183572
396.945300 1.197520
397.162400 0.882708
397.379600 0.960533
397.596800 1.131585
397.814000 0.901271
398.031300 1.013658
398.248500 1.344650
398.465800 0.947637
398.683000 0.890539
398.900300 0.956387
399.117600 1.057250
399.334900 0.844540
399.552200 1.047406
399.769600 0.964792
399.986900 1.147146
400.204300 1.057443
400.421600 1.046663
400.639000 0.878774
400.856400 0.898400
401.073800 0.814035
401.291200 0.974982
401.508700 0.803560
401.726100 1.024740
401.943600 0.917832
402.161000 0.742569
402.378500 0.900841
402.596000 0.839174
402.813500 0.870886
403.031000 0.798358
403.248600 0.762644
403.466100 0.815536
403.683700 0.977566
403.901300 0.821891
404.118900 0.759357
404.336500 0.942251
404.554100 0.858811
404.771700 0.853496
404.989300 0.726437
405.207000 0.837245
405.424600 0.854831
405.642300 0.794381
405.860000 0.823373
406.077700 0.715585
406.295400 0.628715
406.513100 0.667074
406.730900 0.744694
406.948600 0.736396
407.166400 0.717002
407.384200 0.818228
407.602000 0.620111
407.819800 0.700111
408.037600 0.896873
408.255400 0.786802
408.473300 0.619106
408.691100 0.629964
408.909000 0.656325
409.126900 0.627131
409.344800 0.665747
409.562700 0.583676
409.780600 0.754826
409.998500 0.754748
410.216500 0.608484
410.434400 0.593830
410.652400 0.775571
410.870400 0.675008
411.088400 0.778705
411.306400 0.665552
411.524400 0.572390
411.742400 0.691603
411.960500 0.658839
412.178500 0.616143
412.396600 0.570494
412.614700 0.557722
412.832800 0.564443
413.050900 0.622695
413.269000 0.562584
413.487100 0.580537
413.705300 0.570485
413.923400 0.593220
414.141600 0.625723
414.359800 0.549061
414.578000 0.596358
414.796200 0.565207
415.014400 0.597336
415.232600 0.621306
415.450900 0.556187
415.669200 0.522841
415.887400 0.632062
416.105700 0.609102
416.324000 0.635849
416.542300 0.603455
416.760600 0.529566
416.979000 0.584066
417.197300 0.539935
417.415700 0.528325
417.634100 0.525784
417.852400 0.501592
418.070800 0.522352
418.289300 0.461231
418.507700 0.462853
418.726100 0.493807
418.944600 0.450307
419.163000 0.524192
419.381500 0.521906
419.600000 0.502446
419.818500 0.528022
420.037000 0.463093
420.255500 0.523720
420.474100 0.516980
420.692600 0.514432
420.911200 0.472955
421.129800 0.514202
421.348300 0.478229
421.566900 0.486096
421.785600 0.483363
422.004200 0.490313
422.222800 0.464156
422.441500 0.509169
422.660100 0.432196
422.878800 0.456348
423.097500 0.452097
423.316200 0.474633
423.534900 0.454972
423.753600 0.447669
423.972400 0.455006
424.191100 0.490707
424.409900 0.429669
424.628700 0.424432
424.847500 0.434053
425.066300 0.479822
425.285100 0.459765
425.503900 0.432685
425.722800 0.398186
425.941600 0.448765
426.160500 0.458069
426.379300 0.391506
426.598200 0.447082
426.817100 0.424284
427.036100 0.479898
427.255000 0.473565
427.473900 0.461466
427.692900 0.456015
427.911800 0.433073
428.130800 0.449843
428.349800 0.439887
428.568800 0.404530
428.787800 0.433186
429.006800 0.411134
429.225900 0.418984
429.444900 0.429089
429.664000 0.402203
429.883100 0.421176
430.102200 0.432363
430.321300 0.392460
430.540400 0.449754
430.759500 0.390661
430.978700 0.377073
431.197800 0.410975
431.417000 0.394613
431.636200 0.402530
431.855300 0.477295
432.074500 0.390322
432.293800 0.388727
432.513000 0.415656
432.732200 0.405481
432.951500 0.436755
433.170700 0.418462
433.390000 0.396691
433.609300 0.411927
433.828600 0.390219
434.047900 0.400162
434.267300 0.442710
434.486600 0.392814
434.705900 0.406561
434.925300 0.416501
435.144700 0.403900
435.364100 0.426160
435.583500 0.411044
435.802900 0.417146
436.022300 0.414079
436.241800 0.373565
436.461200 0.397745
436.680700 0.412969
436.900100 0.396418
437.119600 0.449962
437.339100 0.396041
437.558600 0.371408
437.778200 0.389560
437.997700 0.408665
438.217300 0.413029
438.436800 0.404034
438.656400 0.415551
438.876000 0.394246
439.095600 0.362164
439.315200 0.424091
439.534800 0.392689
439.754500 0.371382
439.974100 0.411541
440.193800 0.442941
440.413500 0.395631
440.633100 0.413750
440.852800 0.434144
441.072500 0.428712
441.292300 0.390150
441.512000 0.436537
441.731800 0.444326
441.951500 0.409238
442.171300 0.387789
442.391100 0.417414
442.610900 0.431999
442.830700 0.403415
443.050500 0.424947
443.270300 0.411485
443.490200 0.416250
443.710100 0.417242
443.929900 0.448027
444.149800 0.414053
444.369700 0.422940
444.589600 0.415837
444.809500 0.474490
445.029500 0.460894
445.249400 0.461238
445.469400 0.466602
445.689400 0.461283
445.909300 0.418456
446.129300 0.449275
446.349300 0.462748
446.569400 0.455877
446.789400 0.460440
447.009400 0.446701
447.229500 0.420313
447.449600 0.442081
447.669600 0.456307
447.889700 0.421768
448.109800 0.423643
448.330000 0.468942
448.550100 0.501785
448.770200 0.432317
448.990400 0.494859
449.210600 0.477253
449.430700 0.430215
449.650900 0.429331
449.871100 0.430461
450.091400 0.470421
450.311600 0.466331
450.531800 0.441323
450.752100 0.421621
450.972400 0.488752
451.192600 0.437844
451.412900 0.491390
451.633200 0.399957
451.853500 0.465397
452.073900 0.441690
452.294200 0.505711
452.514600 0.499543
452.734900 0.458176
452.955300 0.432233
453.175700 0.485151
453.396100 0.464380
453.616500 0.456464
453.836900 0.494821
454.057400 0.517492
454.277800 0.487021
454.498300 0.484550
454.718800 0.483168
454.939300 0.535326
455.159700 0.469096
455.380300 0.485918
455.600800 0.482753
455.821300 0.541043
456.041900 0.526189
456.262400 0.499928
456.483000 0.537354
456.703600 0.513847
456.924200 0.519468
457.144800 0.513401
457.365400 0.525359
457.586000 0.529668
457.806700 0.585306
458.027400 0.563128
458.248000 0.471694
458.468700 0.544255
458.689400 0.542914
458.910100 0.566589
459.130800 0.577134
459.351600 0.556979
459.572300 0.545059
459.793100 0.601786
460.013800 0.504861
460.234600 0.570679
460.455400 0.574798
460.676200 0.577725
460.897000 0.596384
461.117800 0.552801
461.338700 0.585665
461.559500 0.674867
461.780400 0.535441
462.001300 0.629826
462.222200 0.615037
462.443100 0.638120
462.664000 0.624912
462.884900 0.569012
463.105900 0.601818
463.326800 0.631475
463.547800 0.696032
463.768700 0.613747
463.989700 0.595402
464.210700 0.633044
464.431700 0.636958
464.652800 0.596477
464.873800 0.606309
465.094800 0.597241
465.315900 0.741857
465.537000 0.617560
465.758100 0.714566
465.979200 0.718093
466.200300 0.686458
466.421400 0.676733
466.642500 0.698080
466.863700 0.659973
467.084800 0.707013
467.306000 0.710680
467.527200 0.723880
467.748400 0.735500
467.969600 0.754696
468.190800 0.762305
468.412000 0.694927
468.633300 0.703540
468.854500 0.696361
469.075800 0.761472
469.297000 0.748810
469.518300 0.867173
469.739600 0.821415
469.961000 0.767010
470.182300 0.713976
470.403600 0.815672
470.625000 0.673405
470.846300 0.766026
471.067700 0.760336
471.289100 0.739349
471.510500 0.797028
471.731900 0.732217
471.953300 0.761197
472.174800 0.864299
472.396200 0.793800
472.617700 0.733723
472.839100 0.881199
473.060600 0.761427
473.282100 0.794493
473.503600 0.793383
473.725100 0.821243
473.946700 0.814969
474.168200 0.763386
474.389800 0.825590
474.611300 0.900841
474.832900 0.788681
475.054500 0.803635
475.276100 0.827780
475.497700 0.814970
475.719300 0.765920
475.941000 0.935842
476.162600 0.857558
476.384300 0.832779
476.606000 0.731243
476.827700 0.946343
477.049400 0.806330
477.271100 0.926240
477.492800 0.855485
477.714500 0.838990
477.936300 0.990191
478.158000 0.985416
478.379800 0.965210
478.601600 0.993846
478.823400 0.959012
479.045200 0.927199
479.267000 0.884918
479.488800 0.901292
479.710700 0.888673
479.932500 0.946939
480.154400 1.073991
480.376300 0.958660
480.598200 0.996190
480.820100 1.115010
481.042000 1.006267
481.263900 0.991851
481.485900 1.015600
481.707800 1.076952
481.929800 0.938413
482.151700 1.104406
482.373700 1.070659
482.595700 0.923832
482.817700 0.931881
483.039800 0.974749
483.261800 1.129926
483.483800 0.978582
483.705900 1.025613
483.928000 1.097924
484.150100 1.021437
484.372100 1.107827
484.594300 1.017380
484.816400 1.055983
485.038500 1.030602
485.260600 0.953289
485.482800 0.996003
485.705000 1.095967
485.927100 1.064332
486.149300 1.109434
486.371500 1.079445
486.593700 1.115059
486.816000 1.160184
487.038200 1.107299
487.260500 1.133087
487.482700 1.131968
487.705000 1.078767
487.927300 1.313239
488.149600 1.015300
488.371900 1.157765
488.594200 1.064261
488.816500 1.008673
489.038900 1.113879
489.261200 1.141485
489.483600 1.027470
489.706000 1.089729
489.928400 1.136356
490.150800 1.534358
490.373200 0.929097
490.595600 1.271169
490.818000 1.062464
491.040500 1.218002
491.263000 1.192222
491.485400 1.217356
491.707900 1.060150
491.930400 1.237467
492.152900 1.132314
492.375500 1.050555
492.598000 1.339709
492.820500 0.996462
493.043100 1.187958
493.265700 1.457736
493.488200 1.157576
493.710800 1.328049
493.933400 1.149565
494.156100 1.094788
494.378700 1.214346
494.601300 0.979172
494.824000 1.266856
495.046600 1.265012
495.269300 1.167877
495.492000 1.287066
495.714700 1.122265
495.937400 1.170022
496.160100 1.204041
496.382900 1.658367
496.605600 1.240663
496.828400 1.251472
497.051100 1.240068
497.273900 1.206759
497.496700 1.193887
497.719500 1.307370
497.942300 1.258495
498.165200 1.411050
498.388000 1.276766
498.610900 1.402743
498.833700 1.231738
499.056600 1.870321
499.279500 1.137813
499.502400 1.201610
499.725300 1.152704
499.948200 1.165158
500.171200 1.165523
500.394100 1.339269
500.617100 1.228350
500.840000 1.197071
501.063000 1.477705
501.286000 1.363350
501.509000 1.371599
501.732000 1.539619
501.955100 1.288295
502.178100 1.247668
502.401200 1.268484
502.624200 1.356940
502.847300 1.418372
503.070400 1.451032
503.293500 1.350694
503.516600 1.291229
503.739700 1.275072
503.962800 2.480354
504.186000 1.207500
504.409200 1.622052
504.632300 1.222828
504.855500 1.239352
505.078700 1.290342
505.301900 1.403205
505.525100 1.401384
505.748300 1.475043
505.971600 1.202546
506.194800 1.279062
506.418100 1.119729
506.641400 1.285177
506.864700 1.375820
507.088000 1.232883
507.311300 1.332727
507.534600 1.308386
507.757900 1.552732
507.981300 1.383142
508.204600 1.126095
508.428000 1.267185
508.651400 1.185069
508.874800 1.557647
509.098200 1.377158
509.321600 1.722864
509.545000 1.212489
509.768500 1.298850
509.991900 1.323115
510.215400 1.342591
510.438800 1.299346
510.662300 1.627477
510.885800 1.095115
511.109300 1.149413
511.332900 1.273144
511.556400 1.460185
511.779900 1.135844
512.003500 1.412406
512.227000 1.414792
512.450600 1.381421
512.674200 1.286483
512.897800 1.457523
513.121400 1.137275
513.345100 1.403543
513.568700 1.203924
513.792300 1.091197
514.016000 2.056209
514.239700 1.523030
514.463400 1.541775
514.687100 1.314400
514.910800 1.317360
515.134500 1.221408
515.358200 1.318010
515.581900 1.579963
515.805700 1.169064
516.029500 1.407488
516.253200 1.317069
516.477000 1.276031
516.700800 1.177045
516.924600 1.365598
517.148500 1.382467
517.372300 1.166425
517.596100 1.114583
517.820000 1.362881
518.043900 1.025822
518.267700 1.392569
518.491600 1.489140
518.715500 1.487529
518.939500 1.153669
519.163400 1.202322
519.387300 1.265208
519.611300 1.267650
519.835200 1.171163
520.059200 1.323247
520.283200 1.340809
520.507200 1.228947
520.731200 1.331841
520.955200 1.042600
521.179200 1.134491
521.403300 0.993917
521.627300 1.120880
521.851400 1.107834
522.075500 1.107726
522.299600 1.048569
522.523700 1.396215
522.747800 1.584565
522.971900 1.106133
523.196000 1.397663
523.420200 1.097407
523.644300 1.033885
523.868500 1.039634
524.092700 1.036435
524.316900 1.203518
524.541100 0.990255
524.765300 1.343039
524.989500 0.973089
525.213800 0.967772
525.438000 1.096859
525.662300 1.247103
525.886500 1.473074
526.110800 1.089879
526.335100 1.032028
526.559400 1.359516
526.783700 1.078267
527.008100 1.413099
527.232400 0.991589
527.456800 1.224627
527.681100 0.893949
527.905500 1.060795
528.129900 1.047365
528.354300 1.057492
528.578700 1.039186
528.803100 0.991160
529.027600 0.969024
529.252000 1.220457
529.476500 0.954866
529.700900 1.271809
529.925400 1.043846
530.149900 0.933097
530.374400 0.989855
530.598900 0.982468
530.823400 0.970159
531.048000 0.874431
531.272500 0.864317
531.497100 0.818958
531.721700 0.802578
531.946200 0.797439
532.170800 0.898662
532.395400 0.943688
532.620000 1.001946
532.844700 0.902068
533.069300 1.006922
533.294000 0.921798
533.518600 0.895054
533.743300 0.906383
533.968000 0.915786
534.192700 0.864849
534.417400 0.841962
534.642100 0.799113
534.866800 0.893430
535.091600 0.821312
535.316300 0.944530
535.541100 0.921162
535.765900 0.832943
535.990700 0.805190
536.215500 0.756517
536.440300 0.737986
536.665100 0.875735
536.889900 0.876335
537.114800 0.707603
537.339600 0.783338
537.564500 0.844836
537.789400 0.831947
538.014300 0.761372
538.239200 0.768480
538.464100 0.713209
538.689000 0.764730
538.913900 0.741623
539.138900 0.787137
539.363800 0.704056
539.588800 0.799892
539.813800 0.754133
540.038800 0.829758
540.263800 0.729910
540.488800 0.704526
540.713800 0.681955
540.938900 0.777163
541.163900 0.685282
541.389000 0.708535
541.614000 0.761823
541.839100 0.662872
542.064200 0.675178
542.289300 0.688010
542.514400 0.746180
542.739600 0.718717
542.964700 0.713750
543.189900 0.744305
543.415000 0.663314
543.640200 0.706534
543.865400 0.643668
544.090600 0.754206
544.315800 0.664517
544.541000 0.651207
544.766200 0.634729
544.991500 0.667022
545.216700 0.588826
545.442000 0.703048
545.667300 0.666962
545.892600 0.607644
546.117900 0.588959
546.343200 0.643473
546.568500 0.660917
546.793800 0.603697
547.019200 0.580486
547.244500 0.553373
547.469900 0.583871
547.695300 0.516662
547.920600 0.569867
548.146000 0.607303
548.371500 0.592594
548.596900 0.547902
548.822300 0.517677
549.047800 0.607205
549.273200 0.585523
549.498700 0.507901
549.724200 0.583494
549.949600 0.552510
550.175100 0.513204
550.400700 0.579433
550.626200 0.506300
550.851700 0.575355
551.077300 0.478290
551.302800 0.521251
551.528400 0.475168
551.754000 0.516097
551.979600 0.511199
552.205200 0.489515
552.430800 0.498164
552.656400 0.492546
552.882000 0.443312
553.107700 0.469576
553.333300 0.489217
553.559000 0.443718
553.784700 0.445326
554.010400 0.474009
554.236100 0.463291
554.461800 0.429463
554.687500 0.419290
554.913200 0.456116
555.139000 0.419570
555.364800 0.413490
555.590500 0.455642
555.816300 0.441208
556.042100 0.426290
556.267900 0.379860
556.493700 0.408924
556.719500 0.419414
556.945400 0.429779
557.171200 0.428280
557.397100 0.399285
557.623000 0.435535
557.848800 0.403506
558.074700 0.381936
558.300600 0.384887
558.526600 0.385109
558.752500 0.406061
558.978400 0.373553
559.204400 0.341398
559.430300 0.376483
559.656300 0.329680
559.882300 0.332896
560.108300 0.332126
560.334300 0.358079
560.560300 0.368793
560.786300 0.355635
561.012400 0.359003
561.238400 0.360112
561.464500 0.365059
561.690500 0.343992
561.916600 0.342290
562.142700 0.347842
562.368800 0.339573
562.594900 0.352347
562.821100 0.321189
563.047200 0.333256
563.273300 0.325850
563.499500 0.308554
563.725700 0.328766
563.951900 0.312618
564.178100 0.313380
564.404300 0.323599
564.630500 0.306528
564.856700 0.319989
565.082900 0.309520
565.309200 0.278352
565.535500 0.315516
565.761700 0.288258
565.988000 0.291175
566.214300 0.272628
566.440600 0.270176
566.666900 0.256586
566.893200 0.261980
567.119600 0.268495
567.345900 0.272686
567.572300 0.267433
567.798700 0.279023
568.025000 0.257287
568.251400 0.262085
568.477800 0.271650
568.704300 0.263271
568.930700 0.278318
569.157100 0.260305
569.383600 0.269166
569.610000 0.244027
569.836500 0.252720
570.063000 0.248713
570.289500 0.261883
570.516000 0.279599
570.742500 0.241350
570.969000 0.241527
571.195600 0.248443
571.422100 0.245681
571.648700 0.235180
571.875200 0.231953
572.101800 0.252074
572.328400 0.234578
572.555000 0.238312
572.781600 0.231637
573.008200 0.237105
573.234900 0.252664
573.461500 0.224846
573.688200 0.232287
573.914900 0.226845
574.141500 0.220068
574.368200 0.229846
574.594900 0.215658
574.821600 0.211924
575.048400 0.225619
575.275100 0.210877
575.501800 0.220616
575.728600 0.229045
575.955400 0.202260
576.182100 0.221646
576.408900 0.213152
576.635700 0.207855
576.862600 0.213591
577.089400 0.207328
577.316200 0.207919
577.543100 0.202322
577.769900 0.199822
577.996800 0.205098
578.223700 0.202266
578.450500 0.199107
578.677400 0.196060
578.904400 0.205101
579.131300 0.202622
579.358200 0.204266
579.585100 0.188070
579.812100 0.197395
580.039100 0.183119
580.266000 0.187655
580.493000 0.179680
580.720000 0.184090
580.947000 0.180647
581.174100 0.183080
581.401100 0.174586
581.628100 0.173062
581.855200 0.180279
582.082200 0.177058
582.309300 0.174520
582.536400 0.175077
582.763500 0.167968
582.990600 0.177057
583.217700 0.163636
583.444900 0.176539
583.672000 0.178322
583.899100 0.180451
584.126300 0.168396
584.353500 0.174348
584.580700 0.168435
584.807900 0.158402
585.035100 0.175427
585.262300 0.166804
585.489500 0.161197
585.716700 0.152168
585.944000 0.157759
586.171300 0.161884
586.398500 0.156399
586.625800 0.163466
586.853100 0.162129
587.080400 0.152234
587.307700 0.147407
587.535000 0.167679
587.762400 0.161042
587.989700 0.149589
588.217100 0.159795
588.444500 0.148716
588.671800 0.144414
588.899200 0.149377
589.126600 0.136960
589.354000 0.156295
589.581500 0.142906
589.808900 0.146975
590.036300 0.157398
590.263800 0.146827
590.491300 0.147388
590.718700 0.141917
590.946200 0.153479
591.173700 0.130673
591.401200 0.159545
591.628800 0.155312
591.856300 0.140632
592.083800 0.151122
592.311400 0.147038
592.538900 0.140897
592.766500 0.141630
592.994100 0.147499
593.221700 0.149150
593.449300 0.132222
593.676900 0.150377
593.904600 0.143182
594.132200 0.142980
594.359800 0.141169
594.587500 0.136500
594.815200 0.128334
595.042900 0.135654
595.270500 0.148982
595.498300 0.137917
595.726000 0.148457
595.953700 0.144012
596.181400 0.137933
596.409200 0.138530
596.636900 0.143836
596.864700 0.136444
597.092500 0.138040
597.320300 0.130776
597.548100 0.148303
597.775900 0.144755
598.003700 0.133308
598.231500 0.137711
598.459400 0.137325
598.687200 0.139920
598.915100 0.136419
599.143000 0.131463
599.370900 0.141731
599.598800 0.126564
599.826700 0.128479
600.054600 0.132568
600.282500 0.126872
600.510500 0.121012
600.738400 0.130230
600.966400 0.122855
601.194400 0.114778
601.422300 0.127012
601.650300 0.112375
601.878300 0.127798
602.106400 0.135464
602.334400 0.136851
602.562400 0.127149
602.790500 0.130891
603.018500 0.128988
603.246600 0.118828
603.474700 0.123971
603.702800 0.123399
603.930900 0.126278
604.159000 0.130666
604.387100 0.135238
604.615200 0.124306
604.843400 0.121796
605.071500 0.122177
605.299700 0.126523
605.527900 0.112059
605.756100 0.119409
605.984300 0.112204
606.212500 0.107791
606.440700 0.110145
606.668900 0.108338
606.897200 0.107853
607.125400 0.119517
607.353700 0.104578
607.581900 0.111075
607.810200 0.101741
608.038500 0.100798
608.266800 0.110084
608.495100 0.111405
608.723500 0.083860
608.951800 0.129479
609.180100 0.096790
609.408500 0.116161
609.636900 0.111798
609.865300 0.113616
610.093600 0.112000
610.322000 0.110272
610.550500 0.109974
610.778900 0.117401
611.007300 0.115973
611.235700 0.110613
611.464200 0.128936
611.692700 0.107376
611.921100 0.106504
612.149600 0.109154
612.378100 0.106585
612.606600 0.114933
612.835100 0.120827
613.063700 0.106215
613.292200 0.116710
613.520800 0.118998
613.749300 0.109108
613.977900 0.124831
614.206500 0.111419
614.435100 0.122983
614.663700 0.102882
614.892300 0.121332
615.120900 0.106869
615.349500 0.111036
615.578200 0.115449
615.806800 0.114093
616.035500 0.107108
616.264200 0.123185
616.492900 0.104805
616.721600 0.114301
616.950300 0.118632
617.179000 0.115208
617.407700 0.101544
617.636500 0.100406
617.865200 0.107667
618.094000 0.106303
618.322700 0.113656
618.551500 0.102305
618.780300 0.108229
619.009100 0.118738
619.237900 0.119342
619.466700 0.117556
619.695600 0.102224
619.924400 0.113759
620.153300 0.099142
620.382100 0.102532
620.611000 0.088846
620.839900 0.083996
621.068800 0.090120
621.297700 0.108338
621.526600 0.094566
621.755600 0.092105
621.984500 0.103270
622.213500 0.096393
622.442400 0.089118
622.671400 0.110608
622.900400 0.103642
623.129400 0.121314
623.358400 0.115659
623.587400 0.087899
623.816400 0.086710
624.045400 0.107143
624.274500 0.106015
624.503500 0.083343
624.732600 0.073480
624.961700 0.095344
625.190800 0.094216
625.419900 0.090365
625.649000 0.101705
625.878100 0.097055
626.107200 0.083123
626.336400 0.093444
626.565500 0.087750
626.794700 0.128035
627.023800 0.092513
627.253000 0.108378
627.482200 0.083948
627.711400 0.090513
627.940600 0.111342
628.169800 0.087934
628.399100 0.079053
628.628300 0.101370
628.857600 0.093529
629.086800 0.114541
629.316100 0.078162
629.545400 0.086314
629.774700 0.116566
630.004000 0.097898
630.233300 0.112172
630.462600 0.106634
630.692000 0.102474
630.921300 0.084881
631.150700 0.092195
631.380100 0.111644
631.609400 0.077482
631.838800 0.124342
632.068200 0.093823
632.297600 0.109242
632.527100 0.108536
632.756500 0.094579
632.985900 0.103689
633.215400 0.115387
633.444800 0.081044
633.674300 0.108637
633.903800 0.076945
634.133300 0.087500
634.362800 0.091870
634.592300 0.088936
634.821800 0.085839
635.051400 0.123251
635.280900 0.093927
635.510500 0.065190
635.740000 0.117479
635.969600 0.131618
636.199200 0.118809
636.428800 0.102014
636.658400 0.088745
636.888000 0.069773
637.117700 0.110672
637.347300 0.108309
637.577000 0.103001
637.806600 0.075452
638.036300 0.111185
638.266000 0.090368
638.495700 0.094128
638.725400 0.124726
638.955100 0.083530
639.184800 0.093050
639.414500 0.118086
639.644300 0.073885
639.874000 0.086730
640.103800 0.107801
640.333600 0.089498
640.563300 0.107007
640.793100 0.071223
641.022900 0.081076
641.252800 0.101101
641.482600 0.096984
641.712400 0.087748
641.942300 0.089921
642.172100 0.106213
642.402000 0.094839
642.631900 0.098218
642.861700 0.084100
643.091600 0.095420
643.321600 0.093869
643.551500 0.088885
643.781400 0.077663
644.011300 0.064962
644.241300 0.085483
644.471200 0.087271
644.701200 0.094057
644.931200 0.121047
645.161200 0.116870
645.391200 0.095399
645.621200 0.097741
645.851200 0.103139
646.081200 0.057556
646.311300 0.105849
646.541300 0.143992
646.771400 0.065313
647.001500 0.142708
647.231600 0.079324
647.461600 0.124107
647.691800 0.098522
647.921900 0.068496
648.152000 0.109892
648.382100 0.087765
648.612300 0.105857
648.842400 0.098921
649.072600 0.110079
649.302800 0.059853
649.532900 0.105931
649.763100 0.096091
649.993300 0.072590
650.223600 0.083752
650.453800 0.081762
650.684000 0.100217
650.914300 0.085897
651.144500 0.096236
651.374800 0.103688
651.605100 0.073733
651.835400 0.096056
652.065700 0.071328
652.296000 0.067370
652.526300 0.101499
652.756600 0.107850
652.987000 0.063475
653.217300 0.086043
653.447700 0.096996
653.678000 0.084022
653.908400 0.089011
654.138800 0.118523
654.369200 0.068509
654.599600 0.115748
654.830000 0.116985
655.060500 0.136833
655.290900 0.170752
655.521300 0.144282
655.751800 0.113534
655.982300 0.002910
656.212800 0.000974
656.443300 0.001458
656.673800 0.001232
656.904300 0.059879
657.134800 0.114903
657.365300 0.115585
657.595900 0.112386
657.826400 0.114786
658.057000 0.116816
658.287500 0.122236
658.518100 0.112701
658.748700 0.118151
658.979300 0.125557
659.209900 0.150066
659.440600 0.169040
659.671200 0.183180
659.901800 0.170326
660.132500 0.140402
660.363200 0.141673
660.593800 0.122793
660.824500 0.099540
661.055200 0.081410
661.285900 0.121538
661.516600 0.078410
661.747400 0.115221
661.978100 0.096363
662.208800 0.121791
662.439600 0.072476
662.670400 0.093220
662.901100 0.057705
663.131900 0.166356
663.362700 0.094557
663.593500 0.101763
663.824300 0.102933
664.055200 0.091916
664.286000 0.058063
664.516800 0.123808
664.747700 0.093067
664.978600 0.086085
665.209400 0.084479
665.440300 0.115548
665.671200 0.100009
665.902100 0.102205
666.133000 0.067529
666.364000 0.097071
666.594900 0.078050
666.825900 0.095001
667.056800 0.124572
667.287800 0.071001
667.518800 0.067727
667.749700 0.087223
667.980700 0.085023
668.211700 0.071031
668.442800 0.091856
668.673800 0.087590
668.904800 0.054548
669.135900 0.146051
669.366900 0.106236
669.598000 0.046053
669.829100 0.130025
670.060200 0.054606
670.291300 0.079748
670.522400 0.118393
670.753500 0.083644
670.984600 0.086985
671.215700 0.121717
671.446900 0.095755
671.678100 0.122630
671.909200 0.084534
672.140400 0.128996
672.371600 0.107584
672.602800 0.064959
672.834000 0.096663
673.065200 0.059440
673.296400 0.075026
673.527700 0.077474
673.758900 0.071002
673.990200 0.085196
674.221400 0.081697
674.452700 0.106780
674.684000 0.087333
674.915300 0.095264
675.146600 0.095675
675.377900 0.099974
675.609300 0.112121
675.840600 0.102892
676.071900 0.114489
676.303300 0.059646
676.534700 0.078794
676.766100 0.112799
676.997400 0.108204
677.228800 0.077485
677.460200 0.115097
677.691700 0.097593
677.923100 0.058564
678.154500 0.086622
678.386000 0.077810
678.617400 0.086300
678.848900 0.130278
679.080400 0.085549
679.311900 0.106153
679.543400 0.086696
679.774900 0.086463
680.006400 0.098962
680.237900 0.095262
680.469400 0.131306
680.701000 0.118642
680.932500 0.089659
681.164100 0.082182
681.395700 0.062731
681.627300 0.106965
681.858900 0.093694
682.090500 0.087533
682.322100 0.107475
682.553700 0.089243
682.785400 0.092035
683.017000 0.098269
683.248700 0.102869
683.480300 0.090705
683.712000 0.077803
683.943700 0.100397
684.175400 0.085002
684.407100 0.093488
684.638800 0.095377
684.870500 0.122266
685.102300 0.103162
685.334000 0.083334
685.565800 0.107758
685.797500 0.134985
686.029300 0.082910
686.261100 0.096135
686.492900 0.112589
686.724700 0.067842
686.956500 0.089642
687.188300 0.063436
687.420200 0.119361
687.652000 0.101387
687.883800 0.096535
688.115700 0.079845
688.347600 0.088618
688.579500 0.107517
688.811400 0.118272
689.043300 0.100110
689.275200 0.094535
689.507100 0.071206
689.739000 0.104680
689.971000 0.089398
690.202900 0.103741
690.434900 0.082348
690.666900 0.055501
690.898800 0.078191
691.130800 0.115042
691.362800 0.067202
691.594800 0.094524
691.826900 0.099918
692.058900 0.098546
692.290900 0.087406
692.523000 0.097726
692.755000 0.083541
692.987100 0.090295
693.219200 0.083033
693.451300 0.082647
693.683400 0.121591
693.915500 0.096361
694.147600 0.057823
694.379700 0.132697
694.611900 0.094133
694.844000 0.114041
695.076200 0.081212
695.308300 0.108096
695.540500 0.110800
695.772700 0.078222
696.004900 0.141319
696.237100 0.109615
696.469300 0.122421
696.701600 0.072661
696.933800 0.074209
697.166000 0.071257
697.398300 0.112888
697.630600 0.104418
697.862800 0.110709
698.095100 0.084805
698.327400 0.080908
698.559700 0.099219
698.792000 0.082299
699.024300 0.102193
699.256700 0.106020
699.489000 0.094200
699.721400 0.100532
699.953700 0.082215
700.186100 0.097144
700.418500 0.111307
700.650900 0.127741
700.883300 0.095482
701.115700 0.127107
701.348100 0.085483
701.580600 0.102706
701.813000 0.091915
702.045400 0.077204
702.277900 0.101349
702.510400 0.076295
702.742900 0.068311
702.975300 0.083931
703.207800 0.069989
703.440300 0.137033
703.672900 0.129287
703.905400 0.068263
704.137900 0.135701
704.370500 0.120258
704.603000 0.101018
704.835600 0.086535
705.068200 0.051134
705.300800 0.081605
705.533400 0.123557
705.766000 0.076478
705.998600 0.084753
706.231200 0.080496
706.463800 0.114662
706.696500 0.068079
706.929100 0.050071
707.161800 0.059043
707.394500 0.087411
707.627200 0.097649
707.859900 0.133180
708.092600 0.120933
708.325300 0.086120
708.558000 0.077792
708.790700 0.114197
709.023500 0.091783
709.256200 0.065117
709.489000 0.041117
709.721700 0.066686
709.954500 0.071236
710.187300 0.076951
710.420100 0.107517
710.652900 0.068965
710.885700 0.076394
711.118600 0.076201
711.351400 0.060581
711.584200 0.073809
711.817100 0.116032
712.050000 0.101297
712.282800 0.076159
712.515700 0.128855
712.748600 0.071545
712.981500 0.069001
713.214400 0.113799
713.447400 0.050863
713.680300 0.100698
713.913200 0.085485
714.146200 0.068356
714.379100 0.075927
714.612100 0.078968
714.845100 0.086305
715.078100 0.130122
715.311100 0.051338
715.544100 0.078343
715.777100 0.058549
716.010200 0.056111
716.243200 0.071510
716.476200 0.105701
716.709300 0.096553
716.942400 0.119664
717.175400 0.094996
717.408500 0.103519
717.641600 0.087408
717.874700 0.077052
718.107800 0.093970
718.341000 0.087309
718.574100 0.092429
718.807200 0.105464
719.040400 0.098599
719.273600 0.071061
719.506700 0.086882
719.739900 0.094176
719.973100 0.087892
720.206300 0.097107
720.439500 0.144371
720.672700 0.089667
720.906000 0.075922
721.139200 0.057810
721.372500 0.091828
721.605700 0.068548
721.839000 0.114638
722.072300 0.104485
722.305500 0.076098
722.538800 0.097420
722.772100 0.051636
723.005500 0.048264
723.238800 0.111581
723.472100 0.091343
723.705500 0.072108
723.938800 0.085712
724.172200 0.059129
724.405600 0.105256
724.638900 0.108440
724.872300 0.100018
725.105700 0.102233
725.339100 0.127144
725.572600 0.068367
725.806000 0.105182
726.039400 0.092146
726.272900 0.069541
726.506300 0.100790
726.739800 0.060896
726.973300 0.069866
727.206800 0.094280
727.440300 0.114345
727.673800 0.091079
727.907300 0.075633
728.140800 0.101450
728.374300 0.067971
728.607900 0.061769
728.841400 0.063999
729.075000 0.075503
729.308600 0.089649
729.542100 0.107552
729.775700 0.102284
730.009300 0.059950
730.242900 0.113248
730.476600 0.111292
730.710200 0.091851
730.943800 0.103723
731.177500 0.086292
731.411100 0.104372
731.644800 0.111855
731.878500 0.063888
732.112200 0.063997
732.345800 0.081874
732.579500 0.120784
732.813300 0.100893
733.047000 0.072007
733.280700 0.108947
733.514500 0.104884
733.748200 0.094759
733.982000 0.098875
734.215700 0.089399
734.449500 0.101206
734.683300 0.105514
734.917100 0.061552
735.150900 0.074631
735.384700 0.100433
735.618500 0.104701
735.852400 0.111243
736.086200 0.093486
736.320100 0.085802
736.553900 0.107532
736.787800 0.087111
737.021700 0.073105
737.255600 0.103497
737.489500 0.111449
737.723400 0.064906
737.957300 0.068449
738.191200 0.071356
738.425200 0.068463
738.659100 0.081265
738.893100 0.082446
739.127100 0.103868
739.361000 0.096235
739.595000 0.098905
739.829000 0.087471
740.063000 0.089193
740.297000 0.071136
740.531000 0.068682
740.765100 0.101952
740.999100 0.081396
741.233200 0.102414
741.467200 0.093822
741.701300 0.084504
741.935400 0.092696
742.169500 0.065852
742.403600 0.079314
742.637700 0.110894
742.871800 0.102753
743.105900 0.078144
743.340000 0.096931
743.574200 0.087105
743.808300 0.066380
744.042500 0.071813
744.276700 0.046334
744.510800 0.111734
744.745000 0.075258
744.979200 0.084189
745.213400 0.080139
745.447700 0.103838
745.681900 0.068885
745.916100 0.122131
746.150400 0.105320
746.384600 0.089151
746.618900 0.095004
746.853200 0.095667
747.087400 0.090795
747.321700 0.096229
747.556000 0.080945
747.790300 0.089895
748.024700 0.076764
748.259000 0.051055
748.493300 0.099061
748.727700 0.100802
748.962000 0.099453
749.196400 0.063108
749.430800 0.111362
749.665200 0.083629
749.899500 0.080507
750.133900 0.082079
750.368400 0.094222
750.602800 0.083724
750.837200 0.046123
751.071700 0.098942
751.306100 0.084419
751.540600 0.086987
751.775000 0.092480
752.009500 0.099644
752.244000 0.095252
752.478500 0.092906
752.713000 0.079825
752.947500 0.059354
753.182000 0.134107
753.416600 0.074568
753.651100 0.097632
753.885600 0.127598
754.120200 0.112791
754.354800 0.092076
754.589400 0.097441
754.823900 0.105186
755.058500 0.100288
755.293100 0.114330
755.527800 0.068999
755.762400 0.086430
755.997000 0.087413
756.231700 0.103569
756.466300 0.106112
756.701000 0.096822
756.935600 0.095263
757.170300 0.088177
757.405000 0.109029
757.639700 0.104100
757.874400 0.105466
758.109100 0.112651
758.343800 0.092136
758.578600 0.112208
758.813300 0.082511
759.048100 0.108441
759.282800 0.075644
759.517600 0.114184
759.752400 0.091994
759.987200 0.082676
760.222000 0.104257
760.456800 0.100368
760.691600 0.100680
760.926400 0.088776
761.161300 0.092662
761.396100 0.080567
761.631000 0.111388
761.865800 0.122930
762.100700 0.093999
762.335600 0.101624
762.570500 0.086158
762.805400 0.077523
763.040300 0.090381
763.275200 0.098176
763.510100 0.094116
763.745000 0.073203
763.980000 0.113598
764.214900 0.091589
764.449900 0.104672
764.684900 0.115709
764.919800 0.061299
765.154800 0.089987
765.389800 0.088893
765.624800 0.097094
765.859900 0.084372
766.094900 0.076423
766.329900 0.088059
766.565000 0.093116
766.800000 0.085522
767.035100 0.080648
767.270100 0.095475
767.505200 0.084846
767.740300 0.112529
767.975400 0.096195
768.210500 0.082774
768.445600 0.077858
768.680800 0.079330
768.915900 0.102421
769.151000 0.082070
769.386200 0.087748
769.621400 0.095423
769.856500 0.086431
770.091700 0.081156
770.326900 0.072841
770.562100 0.104000
770.797300 0.075949
771.032500 0.095097
771.267700 0.069368
771.503000 0.097099
771.738200 0.095527
771.973500 0.072715
772.208700 0.104604
772.444000 0.102937
772.679300 0.083849
772.914600 0.100328
773.149900 0.058252
773.385200 0.059113
773.620500 0.075177
773.855800 0.108534
774.091100 0.093531
774.326500 0.073219
774.561800 0.101016
774.797200 0.091353
775.032600 0.112808
775.267900 0.081747
775.503300 0.101150
775.738700 0.097738
775.974100 0.072792
776.209500 0.099090
776.445000 0.147133
776.680400 0.127181
776.915800 0.074206
777.151300 0.070332
777.386800 0.084293
777.622200 0.087608
777.857700 0.056388
778.093200 0.084305
778.328700 0.082865
778.564200 0.069847
778.799700 0.064307
779.035200 0.101546
779.270700 0.093311
779.506300 0.062605
779.741800 0.049748
779.977400 0.107344
780.213000 0.088974
780.448500 0.085480
780.684100 0.128159
780.919700 0.066836
781.155300 0.083729
781.390900 0.097483
781.626500 0.101110
781.862200 0.103892
782.097800 0.082851
782.333500 0.057935
782.569100 0.080826
782.804800 0.077722
783.040500 0.077529
783.276100 0.085950
783.511800 0.082877
783.747500 0.100592
783.983200 0.070585
784.219000 0.121535
784.454700 0.091012
784.690400 0.087821
784.926200 0.140411
785.161900 0.092944
785.397700 0.109501
785.633500 0.067379
785.869200 0.074612
786.105000 0.070510
786.340800 0.095862
786.576600 0.098309
786.812400 0.066667
787.048300 0.082051
787.284100 0.112435
787.519900 0.097963
787.755800 0.064488
787.991700 0.105910
788.227500 0.107112
788.463400 0.122427
788.699300 0.094319
788.935200 0.095685
789.171100 0.080777
789.407000 0.090775
789.642900 0.082390
789.878900 0.101837
790.114800 0.091148
790.350700 0.087738
790.586700 0.090392
790.822700 0.092096
791.058600 0.019096
791.294600 0.084613
791.530600 0.108542
791.766600 0.085058
792.002600 0.119291
792.238700 0.067840
792.474700 0.079992
792.710700 0.075444
792.946800 0.114247
793.182800 0.068742
793.418900 0.085092
793.655000 0.085305
793.891000 0.102108
794.127100 0.122566
794.363200 0.094382
794.599300 0.046190
794.835500 0.068927
795.071600 0.103718
795.307700 0.099683
795.543900 0.101254
795.780000 0.078421
796.016200 0.145307
796.252300 0.106239
796.488500 0.085345
796.724700 0.072980
796.960900 0.138566
797.197100 0.082065
797.433300 0.085702
797.669500 0.081614
797.905800 0.079660
798.142000 0.137764
798.378300 0.101930
798.614500 0.090736
798.850800 0.073577
799.087100 0.075514
799.323300 0.083126
799.559600 0.044383
799.795900 0.105559
800.032200 0.130664
800.268600 0.103409
800.504900 0.089511
800.741200 0.080120
800.977600 0.105817
801.213900 0.124029
801.450300 0.110681
801.686700 0.123455
801.923000 0.113313
802.159400 0.127835
802.395800 0.137786
802.632200 0.055632
802.868600 0.058553
803.105100 0.055811
803.341500 0.129857
803.577900 0.094463
803.814400 0.046032
804.050800 0.109926
804.287300 0.083724
804.523800 0.115386
804.760300 0.076414
804.996800 0.061580
805.233300 0.088205
805.469800 0.100976
805.706300 0.105944
805.942800 0.084807
806.179400 0.085637
806.415900 0.100902
806.652500 0.078417
806.889000 0.137092
807.125600 0.087698
807.362200 0.078186
807.598800 0.091328
807.835400 0.130362
808.072000 0.113257
808.308600 0.101183
808.545200 0.116290
808.781800 0.078984
809.018500 0.096861
809.255100 0.056599
809.491800 0.048876
809.728400 0.082605
809.965100 0.107686
810.201800 0.099274
810.438500 0.014234
810.675200 0.091303
810.911900 0.132491
811.148600 0.079264
811.385300 0.108962
811.622100 0.097258
811.858800 0.100753
812.095600 0.035396
812.332300 0.081030
812.569100 0.068435
812.805900 0.000845
813.042700 0.093414
813.279500 0.082454
813.516300 0.047156
813.753100 0.105050
813.989900 0.086443
814.226700 0.136312
814.463600 0.061789
814.700400 0.122863
814.937300 0.094260
815.174200 0.083211
815.411000 0.079209
815.647900 0.023285
815.884800 0.042921
816.121700 0.080230
816.358600 0.069218
816.595500 0.139307
816.832400 0.090924
817.069400 0.084976
817.306300 0.077405
817.543300 0.135437
817.780200 0.049834
818.017200 0.125410
818.254200 0.159012
818.491200 0.002291
818.728200 0.181692
818.965200 0.177190
819.202200 0.090877
819.439200 0.084910
819.676200 0.105012
819.913300 0.139466
820.150300 0.064186
820.387400 0.144313
820.624400 0.123749
820.861500 0.088796
821.098600 0.058264
821.335700 0.159317
821.572700 0.140636
821.809900 0.073740
822.047000 0.161696
822.284100 0.040040
822.521200 0.068015
822.758400 0.068926
822.995500 0.129076
823.232700 0.180295
823.469800 0.212124
823.707000 0.078024
823.944200 0.087382
824.181400 0.125455
824.418600 0.020955
824.655800 0.146160
824.893000 0.121283
825.130200 -0.000916
825.367500 0.087448
825.604700 0.070917
825.841900 0.032109
826.079200 0.132630
826.316500 0.073598
826.553700 0.091305
826.791000 0.095233
827.028300 0.172355
827.265600 0.091380
827.502900 0.060652
827.740200 0.105769
827.977600 0.049238
828.214900 0.057048
828.452200 0.129354
828.689600 0.130109
828.927000 0.036914
829.164300 0.101283
829.401700 0.094062
829.639100 0.107876
829.876500 0.032675
830.113900 0.111650
830.351300 0.119915
830.588700 0.064110
830.826100 0.058297
831.063600 0.008307
831.301000 0.127551
831.538500 0.010037
831.775900 0.087969
832.013400 0.082561
832.250900 0.097445
832.488400 0.155466
832.725900 0.167411
832.963400 0.156165
833.200900 0.043552
833.438400 0.059076
833.675900 0.088901
833.913500 0.099049
834.151000 0.111200
834.388600 0.153902
834.626100 0.156718
834.863700 0.171815
835.101300 0.051526
835.338900 0.118876
835.576500 0.061595
835.814100 0.091521
836.051700 0.101506
836.289300 0.107670
836.526900 0.135030
836.764600 0.071137
837.002200 0.075269
837.239900 0.212111
837.477500 0.079875
837.715200 -0.015435
837.952900 0.071301
838.190600 0.101072
838.428300 0.107438
838.666000 0.127149
838.903700 0.172984
839.141400 0.082372
839.379100 -0.028643
839.616900 0.104672
839.854600 0.083348
840.092400 0.170402
840.330200 0.084211
840.567900 0.159459
840.805700 0.086926
841.043500 0.103400
841.281300 0.100030
841.519100 0.172770
841.756900 0.065078
841.994700 0.111758
842.232600 0.045269
842.470400 0.056562
842.708200 0.122473
842.946100 0.037591
843.184000 0.053246
843.421800 0.097813
843.659700 0.024783
843.897600 0.023047
844.135500 0.082124
844.373400 0.041098
844.611300 0.215079
844.849200 0.123128
845.087200 0.095520
845.325100 0.334091
845.563100 0.067161
845.801000 0.240509
846.039000 0.133090
846.277000 0.069115
846.514900 -0.050788
846.752900 -0.101462
846.990900 -0.034109
847.228900 0.314694
847.466900 0.182206
847.705000 0.008386
847.943000 -0.025940
848.181000 0.109467
848.419100 0.099038
848.657100 0.155252
848.895200 0.102574
849.133300 0.134513
849.371300 0.087150
849.609400 -0.002034
849.847500 0.136873
850.085600 0.030613
850.323700 0.088268
850.561900 0.194913
850.800000 0.028545
851.038100 0.091921
851.276300 -0.122714
851.514400 -0.008230
851.752600 0.076535
851.990800 -0.009154
852.228900 0.052578
852.467100 0.045962
852.705300 0.095079
852.943500 0.117841
853.181700 0.075082
853.420000 0.073327
853.658200 0.077933
853.896400 0.087401
854.134700 0.060698
854.372900 0.066050
854.611200 0.072907
854.849500 0.127470
855.087700 0.053824
855.326000 0.104111
855.564300 0.170278
855.802600 0.137242
856.040900 0.169836
856.279200 0.142583
856.517600 0.140337
856.755900 -0.017761
856.994200 0.056523
857.232600 0.066134
857.471000 0.066217
857.709300 0.097760
857.947700 0.054746
858.186100 0.155678
858.424500 0.072453
858.662900 0.067819
858.901300 0.156689
859.139700 0.124400
859.378100 0.063088
859.616600 0.120984
859.855000 0.087498
860.093500 0.074178
860.331900 -0.019117
860.570400 0.054612
860.808900 0.048552
861.047300 0.027635
861.285800 0.108182
861.524300 0.309568
861.762800 0.144279
862.001300 0.130638
862.239900 0.213551
862.478400 0.064026
862.716900 0.054599
862.955500 0.126764
863.194000 0.079167
863.432600 0.079023
863.671200 0.105750
863.909800 0.178401
864.148300 0.081787
864.386900 0.054921
864.625500 0.239512
864.864200 0.203375
865.102800 0.055736
865.341400 0.173081
865.580000 0.083928
865.818700 0.062859
866.057300 0.105643
866.296000 0.165181
866.534700 -0.024746
866.773300 0.069971
867.012000 0.235730
867.250700 0.135650
867.489400 0.031618
867.728100 0.207121
867.966900 0.086339
868.205600 0.020493
868.444300 0.075858
868.683100 0.002387
868.921800 0.020578
869.160600 0.328918
869.399300 0.210996
869.638100 0.297110
869.876900 0.097379
870.115700 0.229980
870.354500 0.050207
870.593300 0.012829
870.832100 0.226321
871.070900 0.022940
871.309700 0.053323
871.548600 0.309282
871.787400 0.040552
872.026300 0.123782
872.265100 0.022907
872.504000 0.067825
872.742900 0.052593
872.981800 0.158040
873.220700 -0.005803
873.459600 0.157855
873.698500 0.063854
873.937400 -0.009155
874.176300 0.044335
874.415300 0.009512
874.654200 0.189090
874.893200 0.055733
875.132100 -0.014232
875.371100 0.142839
875.610100 0.100878
875.849100 0.087049
876.088000 0.029963
876.327000 0.241707
876.566100 0.157837
876.805100 0.079063
877.044100 0.098836
877.283100 -0.086807
877.522200 -0.060237
877.761200 0.043681
878.000300 0.113627
878.239300 0.194616
878.478400 0.220856
878.717500 0.191667
878.956600 0.095369
879.195700 0.126714
879.434800 0.039605
879.673900 0.085580
879.913000 -0.011096
880.152100 0.100255
880.391300 0.148155
880.630400 0.099391
880.869600 0.149425
881.108700 0.099231
881.347900 0.117475
881.587100 -0.004360
881.826200 0.084384
882.065400 0.052106
882.304600 -0.050192
882.543800 0.044477
882.783100 0.112187
883.022300 0.109942
883.261500 0.084943
883.500700 0.003424
883.740000 0.057113
883.979200 0.254000
884.218500 0.071062
884.457800 -0.014684
884.697100 0.033274
884.936300 0.092026
885.175600 0.109881
885.414900 0.172234
885.654200 0.048473
885.893600 0.038530
886.132900 0.112988
886.372200 0.158396
886.611600 -0.029620
886.850900 0.239377
887.090300 0.131894
887.329600 0.229469
887.569000 0.233516
887.808400 0.145865
888.047800 0.079027
888.287200 0.027556
888.526600 0.059256
888.766000 0.123782
889.005400 -0.012867
889.244800 0.045608
889.484300 -0.119294
889.723700 0.240113
889.963200 0.109283
890.202600 0.098842
890.442100 0.059370
890.681600 0.164017
890.921100 0.178382
891.160600 0.013719
891.400100 0.292950
891.639600 0.103341
891.879100 0.123965
892.118600 0.170916
892.358100 0.246634
892.597700 0.153517
892.837200 0.020802
893.076800 0.102060
893.316300 0.030062
893.555900 0.212440
893.795500 0.228943
894.035100 0.153660
894.274700 0.248676
894.514300 0.054529
894.753900 0.033717
894.993500 0.238743
895.233100 -0.007905
895.472700 -0.021968
895.712400 0.308842
895.952000 0.046687
896.191700 0.048417
896.431400 0.083174
896.671000 0.214340
896.910700 0.031886
897.150400 0.189227
897.390100 -0.021594
897.629800 0.091398
897.869500 0.257936
898.109200 0.199487
898.348900 0.320099
898.588700 -0.001096
898.828400 0.109327
899.068200 0.046328
899.307900 0.132811
899.547700 0.163141
899.787500 0.034610
900.027200 -0.087960
900.267000 0.295616
900.506800 0.182796
900.746600 0.080829
900.986400 0.183757
901.226300 0.090089
901.466100 -0.089536
901.705900 0.140769
901.945800 0.055960
902.185600 0.071993
902.425500 0.148856
902.665400 0.045523
902.905200 0.063696
903.145100 0.119869
903.385000 -0.072541
903.624900 0.166810
903.864800 0.330937
904.104700 0.137946
904.344600 -0.017085
904.584600 0.069577
904.824500 -0.013717
905.064400 0.100392
905.304400 -0.038977
905.544400 0.061856
905.784300 0.288664
906.024300 0.041804
906.264300 0.117705
906.504300 0.223910
906.744300 0.184595
906.984300 0.100674
907.224300 0.092186
907.464300 0.082017
907.704300 -0.044855
907.944400 -0.101744
908.184400 0.077456
908.424500 0.073715
908.664500 -0.059847
908.904600 -0.002647
909.144700 0.397401
909.384700 0.036895
909.624800 0.020196
909.864900 -0.055568
910.105000 0.347076
910.345200 0.106308
910.585300 0.143999
910.825400 0.519893
911.065500 0.240849
911.305700 -0.000189
911.545800 0.088788
911.786000 0.126129
912.026200 0.130936
912.266300 0.162534
912.506500 0.171870
912.746700 0.180629
912.986900 -0.001565
913.227100 -0.038559
913.467300 0.082417
913.707500 0.038235
913.947800 0.212025
914.188000 0.116696
914.428300 0.130932
914.668500 0.064657
914.908800 0.016871
915.149000 0.035357
915.389300 0.224710
915.629600 0.224187
915.869900 0.055315
916.110200 0.129365
916.350500 0.096436
916.590800 0.183902
916.831100 0.111846
917.071400 -0.048379
917.311800 0.240849
917.552100 0.060791
917.792500 0.157326
918.032800 0.057083
918.273200 0.078061
918.513600 0.085153
918.753900 0.094372
918.994300 0.259540
919.234700 0.061174
919.475100 0.115787
919.715500 0.135902
919.956000 0.056529
920.196400 -0.006120
920.436800 -0.023002
920.677300 0.003873
920.917700 0.191561
921.158200 0.197873
921.398600 0.252029
921.639100 0.617783
921.879600 -0.110086
922.120100 0.116734
922.360600 0.353606
922.601100 0.173854
922.841600 0.217874
923.082100 -0.019944
923.322600 -0.007299
923.563100 0.053542
923.803700 0.121527
924.044200 0.116201
924.284800 0.150336
924.525400 -0.106220
924.765900 0.302191
925.006500 0.268869
925.247100 -0.110330
925.487700 0.375164
925.728300 0.249753
925.968900 0.294104
926.209500 0.122603
926.450100 0.188605
926.690800 0.156282
926.931400 -0.078685
927.172000 0.064212
927.412700 0.382538
927.653300 0.127582
927.894000 0.060936
928.134700 0.492656
928.375400 0.156794
928.616100 0.353173
928.856800 0.353489
929.097500 -0.044381
929.338200 0.084714
929.578900 0.298229
929.819600 0.307738
930.060400 -0.064969
930.301100 0.682850
930.541900 0.105292
930.782600 0.620376
931.023400 0.004810
931.264200 0.086656
931.504900 0.231782
931.745700 0.038878
931.986500 0.061227
932.227300 0.335489
932.468100 0.476180
932.708900 0.139163
932.949800 0.339581
933.190600 -0.035679
933.431400 -0.077569
933.672300 -0.129454
933.913100 0.013465
934.154000 0.140144
934.394900 0.172971
934.635800 0.006854
934.876600 0.681469
935.117500 0.090190
935.358400 0.330282
935.599300 -0.123077
935.840300 0.103289
936.081200 0.116319
936.322100 -0.082735
936.563000 0.347737
936.804000 0.513241
937.044900 0.037094
937.285900 0.140724
937.526900 0.006343
937.767800 0.138270
938.008800 0.010880
938.249800 0.200054
938.490800 0.041261
938.731800 0.078225
938.972800 0.206329
939.213800 3.267875
939.454900 0.321012
939.695900 0.010926
939.936900 0.307152
940.178000 -0.081087
940.419000 -0.257329
940.660100 0.198679
940.901200 0.349661
941.142200 0.040493
941.383300 0.391362
941.624400 0.100364
941.865500 1.441450
942.106600 0.350323
942.347700 0.059185
942.588900 1.195948
942.830000 -0.119633
943.071100 2.093032
943.312300 0.462980
943.553400 0.914824
943.794600 0.522954
944.035700 0.491186
944.276900 0.045483
944.518100 3.111934
944.759300 0.410275
945.000500 0.409068
945.241700 0.449472
945.482900 1.565199
945.724100 0.057262
945.965300 3.055378
946.206600 -0.088188
946.447800 -0.056252
946.689100 0.513128
946.930300 -0.460315
947.171600 0.833356
947.412800 0.144492
947.654100 0.216380
947.895400 0.411601
948.136700 3.245019
948.378000 -0.195751
948.619300 0.118039
948.860600 3.265290
949.101900 -0.091920
949.343300 0.309853
949.584600 -0.075955
949.825900 0.854408
950.067300 0.371590
950.308600 0.114955
950.550000 0.015153
950.791400 -0.150819
951.032700 -0.397940
951.274100 -0.371051
951.515500 0.175040
951.756900 0.152941
951.998300 0.154408
952.239800 3.296446
952.481200 0.116279
952.722600 -0.177008
952.964000 -0.043109
953.205500 0.014259
953.446900 0.110513
953.688400 -0.079370
953.929900 0.043148
954.171300 -1.312292
954.412800 0.124105
954.654300 0.099886
954.895800 -0.262704
955.137300 0.388320
955.378800 0.121152
955.620300 0.766192
955.861800 0.093570
956.103400 0.373071
956.344900 -0.073472
956.586500 0.364607
956.828000 0.797249
957.069600 0.392210
957.311100 0.126301
957.552700 0.582340
957.794300 0.212243
958.035900 -0.250505
958.277500 -0.225201
958.519100 3.125806
958.760700 0.369713
959.002300 -0.500762
959.243900 0.297629
959.485600 2.918555
959.727200 0.029633
959.968800 -0.043341
960.210500 -0.039054
960.452200 2.840733
960.693800 0.022001
960.935500 -2.951823
961.177200 0.383512
961.418900 2.653213
961.660600 -0.175960
961.902300 0.165615
962.144000 -0.001840
962.385700 2.791691
962.627400 0.133912
962.869200 -0.407125
963.110900 0.130571
963.352700 0.227322
963.594400 0.407838
963.836200 0.151376
964.077900 0.346689
964.319700 0.019362
964.561500 0.597715
964.803300 0.208300
965.045100 0.072640
965.286900 0.116830
965.528700 -0.076492
965.770500 2.935507
966.012300 0.528516
966.254200 2.791691
966.496000 0.124625
966.737900 0.495019
966.979700 0.324422
967.221600 0.381998
967.463400 0.534352
967.705300 3.152288
967.947200 2.859739
968.189100 -0.409578
968.431000 0.100085
968.672900 0.125931
968.914800 -0.182791
969.156700 0.110598
969.398700 0.384643
969.640600 2.245513
969.882500 3.097604
970.124500 -0.460242
970.366400 0.083059
970.608400 0.281041
970.850400 2.710117
971.092300 -0.051090
971.334300 0.478455
971.576300 -0.332159
971.818300 0.093123
972.060300 0.473008
972.302300 0.932658
972.544300 0.402652
972.786400 0.298038
973.028400 0.028713
973.270400 0.358637
973.512500 3.082426
973.754500 0.396497
973.996600 0.381973
974.238700 -0.070376
974.480700 0.885215
974.722800 0.005596
974.964900 2.859739
975.207000 1.158468
975.449100 2.338456
975.691200 0.019944
975.933300 -0.066425
976.175500 -2.835056
976.417600 0.099329
976.659700 0.370978
976.901900 0.275748
977.144000 0.602618
977.386200 2.745075
977.628300 0.788095
977.870500 1.431679
978.112700 -0.275223
978.354900 2.775974
978.597100 -0.371244
978.839300 0.513099
979.081500 3.115278
979.323700 0.000000
979.565900 -0.098227
979.808200 0.726214
980.050400 0.182587
980.292600 3.008600
980.534900 0.219746
980.777100 0.778151
981.019400 1.275695
981.261700 0.950704
981.504000 0.236284
981.746200 -0.211807
981.988500 0.071747
982.230800 2.805501
982.473100 0.579784
982.715500 0.439859
982.957800 -0.142171
983.200100 1.021856
983.442400 -0.804981
983.684800 0.742436
983.927100 0.178614
984.169500 2.985426
984.411800 -0.436308
984.654200 0.085561
984.896600 0.261272
985.139000 1.230449
985.381400 3.229170
985.623800 3.218010
985.866200 0.523882
986.108600 -2.873321
986.351000 3.089905
986.593400 0.145340
986.835800 1.665581
987.078300 0.007284
987.320700 0.598094
987.563200 2.700704
987.805600 0.072551
988.048100 3.189209
988.290600 0.277549
988.533100 -2.451786
988.775600 0.598441
989.018000 0.353350
989.260500 -0.019150
989.503100 0.000000
989.745600 2.123852
989.988100 -2.745855
990.230600 -0.042275
990.473200 0.345558
990.715700 -0.008082
990.958200 2.523746
991.200800 -0.290355
991.443400 -3.059942
991.685900 2.710117
991.928500 0.000000
992.171100 -1.065912
992.413700 0.277617
992.656300 0.506529
992.898900 2.866287
993.141500 3.078457
993.384100 0.030820
993.626700 0.529106
993.869400 2.760422
994.112000 -0.202846
994.354700 3.165244
994.597300 3.030195
994.840000 -2.634477
995.082600 -0.579935
995.325300 -0.364964
995.568000 -0.012282
995.810700 -0.769972
996.053400 -0.335383
996.296100 2.827369
996.538800 3.042969
996.781500 0.209246
997.024200 2.049218
997.267000 2.791691
997.509700 0.234851
997.752400 1.291517
997.995200 0.376291
998.237900 -0.060360
998.480700 -0.200190
998.723500 0.000000
998.966200 0.163077
999.209000 -2.250420
999.451800 3.003891
999.694600 0.016690
999.937400 2.318063
1000.180200 0.091770
1000.423000 3.101403
1000.665900 2.907949
1000.908700 2.396199
1001.151500 -0.418897
1001.394400 -0.407825
1001.637200 3.078457
1001.880100 -1.190332
1002.123000 -0.243038
1002.365800 2.599883
1002.608700 -0.335792
1002.851600 2.913284
1003.094500 0.144848
1003.337400 -0.347182
1003.580300 -1.968483
1003.823200 -0.330882
1004.066100 -0.113981
1004.309100 0.376909
1004.552000 1.531479
1004.794900 2.847573
1005.037900 0.232291
1005.280800 2.806180
1005.523800 3.183555
1005.766700 0.533484
1006.009700 0.116326
1006.252700 0.000000
1006.495700 2.812913
1006.738700 -2.511883
1006.981700 3.136086
1007.224700 -0.255808
1007.467700 -0.911523
1007.710700 2.610660
1007.953800 0.194305
1008.196800 2.736397
1008.439800 3.195346
1008.682900 2.691965
1008.925900 3.097604
1009.169000 -0.012848
1009.412100 -2.951823
1009.655100 -0.604184
1009.898200 0.025083
1010.141300 -0.260758
1010.384400 1.044354
1010.627500 -0.039721
1010.870600 0.121489
1011.113700 0.104994
1011.356800 -0.215228
1011.600000 1.591065
1011.843100 -0.323743
1012.086300 0.000000
1012.329400 -0.205194
1012.572600 -1.968483
1012.815700 2.783904
1013.058900 0.000000
1013.302100 0.464815
1013.545200 0.112757
1013.788400 0.809374
1014.031600 0.000000
1014.274800 3.075182
1014.518000 3.161967
1014.761300 0.109722
1015.004500 -1.707570
1015.247700 -0.402498
1015.490900 0.000000
1015.734200 0.366479
1015.977400 -0.682970
1016.220700 -2.193125
1016.464000 2.853090
1016.707200 -0.108521
1016.950500 2.378398
1017.193800 -0.204656
1017.437100 -0.357830
1017.680400 0.100065
1017.923700 2.975891
1018.167000 0.013189
1018.410300 2.643453
1018.653600 2.913814
1018.896900 3.021603
1019.140300 0.110071
1019.383600 -0.185431
1019.627000 -0.299812
1019.870300 -0.431694
1020.113700 1.053221
1020.357100 -0.321889
1020.600400 0.240914
1020.843800 -0.144765
1021.087200 1.810008
1021.330600 0.000000
1021.574000 0.079994
1021.817400 0.000000
1022.060800 -3.035430
1022.304200 0.000000
1022.547700 2.902003
1022.791100 2.432969
1023.034500 -0.254901
