# Wavelength	Absorbance
197.780200 0.345767
197.984200 2.907949
198.188200 0.105213
198.392200 -0.266757
198.596300 -0.215556
198.800300 2.318063
199.004400 0.312173
199.208500 -0.207064
199.412600 -0.417536
199.616800 1.105880
199.820900 -0.652220
200.025100 -0.253351
200.229200 -0.164496
200.433400 0.283506
200.637600 -0.454954
200.841800 -0.235984
201.046100 -0.302942
201.250300 3.142702
201.454600 0.315096
201.658900 3.051153
201.863100 0.462003
202.067400 1.097665
202.271800 1.695832
202.476100 -0.092033
202.680500 -0.411429
202.884800 -0.137145
203.089200 -0.209401
203.293600 2.745075
203.498000 -0.341022
203.702400 2.336460
203.906900 -1.329431
204.111300 0.000000
204.315800 0.690927
204.520300 0.827429
204.724800 -0.588670
204.929300 -0.186999
205.133800 0.319985
205.338400 -0.545848
205.543000 0.463864
205.747500 -0.234835
205.952100 2.791691
206.156700 0.704215
206.361400 -2.475671
206.566000 -0.969936
206.770600 0.199253
206.975300 2.294466
207.180000 -2.382789
207.384700 -0.186075
207.589400 -2.649335
207.794100 0.108939
207.998900 -0.305669
208.203600 0.071301
208.408400 0.245717
208.613200 0.213820
208.818000 -0.307913
209.022800 -0.801984
209.227600 -0.304303
209.432500 -0.236626
209.637300 0.342883
209.842200 -0.536763
210.047100 2.798651
210.252000 -0.060865
210.456900 0.147840
210.661800 3.055378
210.866800 0.733761
211.071800 0.571733
211.276700 -0.303439
211.481700 0.910322
211.686700 -0.456387
211.891800 -0.169328
212.096800 0.965192
212.301800 -0.116473
212.506900 0.176762
212.712000 -0.273127
212.917100 0.095044
213.122200 -0.102662
213.327300 3.220892
213.532500 0.000000
213.737600 0.452672
213.942800 -1.585863
214.148000 -0.513130
214.353200 -2.669317
214.558400 -0.161434
214.763600 0.732535
214.968900 -0.184461
215.174100 0.210171
215.379400 0.000000
215.584700 0.437022
215.790000 -0.109695
215.995300 0.002636
216.200700 0.017305
216.406000 0.007687
216.611400 -0.640176
216.816800 2.833784
217.022200 -0.555204
217.227600 -0.017102
217.433000 2.536558
217.638400 0.130295
217.843900 -0.619650
218.049400 -2.628389
218.254800 0.005802
218.460300 -0.101990
218.665900 0.269694
218.871400 -0.154649
219.076900 -0.113123
219.282500 -0.170352
219.488100 -0.273079
219.693600 -0.326686
219.899200 0.097379
220.104900 3.055378
220.310500 2.158362
220.516100 -2.669317
220.721800 -0.086885
220.927500 3.071145
221.133200 -0.498190
221.338900 -0.076634
221.544600 -0.291031
221.750300 3.183555
221.956100 0.024887
222.161800 -0.702936
222.367600 -0.211220
222.573400 -0.145422
222.779200 -2.741939
222.985000 -2.948902
223.190900 0.172974
223.396700 -0.103918
223.602600 0.396929
223.808500 0.292352
224.014400 -0.195907
224.220300 2.935507
224.426200 0.275286
224.632200 -0.221361
224.838100 -0.198424
225.044100 0.539269
225.250100 -0.574276
225.456100 2.653213
225.662100 -0.036860
225.868100 0.464347
226.074200 -0.250067
226.280200 0.000000
226.486300 0.105016
226.692400 0.000000
226.898500 0.051798
227.104600 0.631708
227.310700 -0.019364
227.516900 0.205395
227.723000 -1.027698
227.929200 0.203247
228.135400 -0.069758
228.341600 0.117064
228.547800 0.149185
228.754100 3.003891
228.960300 -0.624891
229.166600 -2.235528
229.372900 0.134162
229.579100 -0.285903
229.785500 -0.249702
229.991800 -1.928688
230.198100 -0.606328
230.404500 -0.985114
230.610800 -0.245307
230.817200 -2.583199
231.023600 0.086964
231.230000 -0.332732
231.436400 0.334723
231.642900 -0.240540
231.849300 0.122374
232.055800 -1.007179
232.262300 3.280123
232.468800 -0.624157
232.675300 -0.286991
232.881800 2.599883
233.088400 -0.243484
233.294900 2.550228
233.501500 0.113128
233.708100 -2.988559
233.914700 -0.227557
234.121300 -2.870404
234.327900 2.776701
234.534600 -0.523600
234.741300 0.323818
234.947900 2.736397
235.154600 0.183743
235.361300 0.216748
235.568000 0.024193
235.774800 2.662758
235.981500 -0.416344
236.188300 -2.773786
236.395100 -0.041827
236.601800 -3.015779
236.808700 -0.233291
237.015500 -0.071600
237.222300 -0.144125
237.429200 0.979732
237.636000 3.042969
237.842900 -1.331156
238.049800 0.229246
238.256700 -0.036096
238.463600 0.074774
238.670600 1.026329
238.877500 0.420028
239.084500 -2.689309
239.291500 0.137498
239.498500 -0.512642
239.705500 -0.397940
239.912500 1.845098
240.119500 -1.383156
240.326600 -0.883020
240.533700 0.000000
240.740700 0.335619
240.947800 0.876396
241.154900 0.475986
241.362100 0.350072
241.569200 -0.485145
241.776400 0.628063
241.983500 0.412836
242.190700 3.206826
242.397900 -3.144574
242.605100 2.537819
242.812400 0.143666
243.019600 -0.041460
243.226900 -0.305661
243.434100 -0.320220
243.641400 -0.212505
243.848700 0.975411
244.056000 -3.049606
244.263400 -0.517049
244.470700 0.308999
244.678100 3.082426
244.885400 -0.205595
245.092800 -0.695525
245.300200 -0.773363
245.507600 0.018466
245.715100 0.010143
245.922500 -0.162241
246.130000 -1.418886
246.337500 0.773621
246.544900 2.396199
246.752400 0.218285
246.960000 0.495927
247.167500 1.552615
247.375000 -2.741939
247.582600 0.027892
247.790200 -1.555094
247.997800 -0.047636
248.205400 0.392522
248.413000 -0.096211
248.620600 0.492013
248.828300 0.387688
249.035900 0.424218
249.243600 0.077993
249.451300 0.106015
249.659000 0.223618
249.866700 0.426264
250.074500 0.408777
250.282200 0.386033
250.490000 3.021603
250.697800 -0.353074
250.905600 -0.736950
251.113400 2.929930
251.321200 -0.486060
251.529000 -0.660717
251.736900 0.549148
251.944700 0.444735
252.152600 0.407064
252.360500 0.234446
252.568400 -0.335065
252.776300 0.453457
252.984300 0.492070
253.192200 0.006790
253.400200 -0.385351
253.608200 -0.503579
253.816200 0.524241
254.024200 -0.033057
254.232200 -0.429504
254.440200 -2.870404
254.648300 -0.479821
254.856400 -0.515389
255.064400 -0.440983
255.272500 0.227200
255.480600 0.047162
255.688800 -2.870404
255.896900 3.030195
256.105100 0.121124
256.313200 -0.485982
256.521400 -0.261475
256.729600 0.119920
256.937800 0.666284
257.146000 1.239245
257.354300 -3.233504
257.562500 0.918563
257.770800 0.000000
257.979100 0.031589
258.187400 2.833784
258.395700 3.082785
258.604000 0.704215
258.812400 -0.466171
259.020700 0.616191
259.229100 -0.037526
259.437500 2.373831
259.645900 -0.094980
259.854300 -0.090428
260.062700 0.231165
260.271100 2.621176
260.479600 3.097604
260.688100 -0.354687
260.896500 0.747703
261.105000 -0.599404
261.313500 -0.068133
261.522100 -0.085184
261.730600 -0.292838
261.939200 0.757085
262.147700 -0.059711
262.356300 -0.477382
262.564900 0.592076
262.773500 2.907411
262.982200 -0.001647
263.190800 -2.857332
263.399500 0.110611
263.608100 -0.177940
263.816800 0.027735
264.025500 -0.767558
264.234200 -0.712041
264.442900 2.053078
264.651700 0.099781
264.860400 2.662758
265.069200 0.309213
265.278000 0.172773
265.486800 0.105487
265.695600 -0.599357
265.904400 -0.122500
266.113300 -0.089426
266.322100 0.013728
266.531000 -0.354869
266.739900 -0.979692
266.948800 3.125806
267.157700 0.409124
267.366600 3.055378
267.575500 -0.258326
267.784500 2.550228
267.993500 -0.115833
268.202400 2.970812
268.411400 0.314033
268.620500 2.761176
268.829500 -0.368600
269.038500 -1.052529
269.247600 0.080996
269.456600 -0.321814
269.665700 -0.137790
269.874800 0.728434
270.083900 0.197606
270.293100 -2.938520
270.502200 -0.331421
270.711400 2.127105
270.920500 0.328634
271.129700 2.985426
271.338900 0.187727
271.548100 0.512988
271.757300 0.256408
271.966600 0.385271
272.175800 0.360629
272.385100 0.163630
272.594400 0.076496
272.803700 3.021603
273.013000 -0.439458
273.222300 2.994757
273.431600 0.361787
273.641000 0.734112
273.850400 1.038810
274.059700 0.413206
274.269100 -0.007442
274.478500 -0.018098
274.688000 3.183555
274.897400 -0.322079
275.106900 -1.519525
275.316300 0.127495
275.525800 0.397754
275.735300 -2.870404
275.944800 -0.303607
276.154300 -0.554199
276.363900 0.323528
276.573400 -0.087777
276.783000 0.191886
276.992600 0.437022
277.202200 0.130295
277.411800 2.587711
277.621400 2.727541
277.831000 3.118595
278.040700 0.469966
278.250300 0.994127
278.460000 0.210413
278.669700 0.447704
278.879400 -0.684633
279.089100 0.085584
279.298900 -0.094556
279.508600 -0.055272
279.718400 0.402366
279.928100 0.000000
280.137900 0.397808
280.347700 2.632457
280.557600 0.291629
280.767400 3.039017
280.977200 -0.278907
281.187100 -2.831230
281.397000 0.420588
281.606900 -2.988559
281.816800 2.550228
282.026700 -0.812327
282.236600 -0.189501
282.446600 -0.252101
282.656500 -2.894316
282.866500 0.347646
283.076500 -0.694565
283.286500 0.146328
283.496500 -0.257873
283.706500 2.907411
283.916600 0.283089
284.126600 -1.958359
284.336700 -0.107210
284.546800 -0.461895
284.756900 -0.023890
284.967000 0.078961
285.177100 0.373652
285.387300 -3.157457
285.597400 3.017033
285.807600 -0.717372
286.017800 0.604937
286.228000 -2.773786
286.438200 0.463864
286.648400 2.940516
286.858700 0.114226
287.068900 -0.335792
287.279200 -0.270647
287.489500 0.752216
287.699800 0.220446
287.910100 2.621176
288.120400 0.488566
288.330800 -0.429227
288.541100 0.135997
288.751500 -0.780339
288.961900 0.403648
289.172300 -3.080987
289.382700 0.204413
289.593100 2.913284
289.803500 -2.857332
290.014000 2.980458
290.224500 0.688117
290.434900 0.000000
290.645400 -0.532067
290.855900 2.653213
291.066500 0.021624
291.277000 2.744293
291.487500 -0.515115
291.698100 1.370698
291.908700 -0.792841
292.119300 3.059185
292.329900 -0.022611
292.540500 1.065596
292.751100 -0.076853
292.961800 -2.948902
293.172400 0.138412
293.383100 -2.997823
293.593800 -0.046636
293.804500 -0.132845
294.015200 0.149228
294.226000 0.000000
294.436700 -0.460014
294.647500 -0.214700
294.858200 0.105867
295.069000 -0.062224
295.279800 -0.313209
295.490600 -3.144574
295.701500 -0.014167
295.912300 -0.150718
296.123200 -0.118321
296.334000 2.719331
296.544900 0.062502
296.755800 0.662184
296.966700 -0.125667
297.177700 0.187806
297.388600 0.490958
297.599500 1.667453
297.810500 -0.183900
298.021500 0.031616
298.232500 0.238660
298.443500 -1.598277
298.654500 0.549148
298.865600 -0.025257
299.076600 2.622214
299.287700 -2.948902
299.498800 -0.010264
299.709900 0.098546
299.921000 0.275476
300.132100 3.038620
300.343200 0.601129
300.554400 0.080068
300.765500 2.853698
300.976700 -2.905796
301.187900 0.198691
301.399100 0.369536
301.610300 0.371213
301.821500 0.547173
302.032800 -0.188875
302.244100 3.017451
302.455300 0.812047
302.666600 -0.336859
302.877900 0.257392
303.089200 2.357935
303.300600 0.467844
303.511900 0.321477
303.723300 2.924279
303.934600 -0.053724
304.146000 -1.844211
304.357400 2.432969
304.568800 -0.310501
304.780300 3.192289
304.991700 -0.379140
305.203100 -0.486313
305.414600 0.549047
305.626100 -0.850108
305.837600 0.965595
306.049100 0.331930
306.260600 -0.080145
306.472200 -0.892474
306.683700 -0.185337
306.895300 0.289631
307.106900 0.055344
307.318400 -0.082974
307.530100 1.051301
307.741700 2.806180
307.953300 1.001823
308.165000 0.000000
308.376600 0.232268
308.588300 0.314409
308.800000 -0.007165
309.011700 0.456954
309.223400 0.060227
309.435100 0.505766
309.646900 -0.270484
309.858600 0.030510
310.070400 0.623895
310.282200 -0.838399
310.494000 0.245737
310.705800 3.168203
310.917600 -0.337974
311.129500 -0.017226
311.341300 0.085058
311.553200 -0.019617
311.765100 -0.005325
311.977000 3.142702
312.188900 0.278066
312.400800 0.659532
312.612700 -0.090624
312.824700 0.250642
313.036600 0.276441
313.248600 0.404151
313.460600 2.999565
313.672600 1.096104
313.884600 0.907383
314.096700 -0.669396
314.308700 0.451476
314.520800 0.187848
314.732800 0.545445
314.944900 0.157569
315.157000 0.313254
315.369200 -0.080972
315.581300 -0.328160
315.793400 2.653213
316.005600 0.693588
316.217700 0.030216
316.429900 0.246192
316.642100 -0.070596
316.854300 0.124822
317.066600 0.535562
317.278800 0.142982
317.491100 0.309764
317.703300 -0.067547
317.915600 0.246840
318.127900 0.476810
318.340200 0.294147
318.552500 0.722518
318.764900 3.139249
318.977200 3.437592
319.189600 0.113215
319.401900 3.427324
319.614300 0.661820
319.826700 1.154862
320.039200 3.358886
320.251600 0.499955
320.464000 0.628689
320.676500 0.615955
320.889000 -0.513254
321.101400 0.291223
321.313900 0.331631
321.526500 0.385502
321.739000 3.376577
321.951500 1.062970
322.164100 0.262176
322.376600 0.603114
322.589200 3.362859
322.801800 0.203263
323.014400 0.382335
323.227000 0.297210
323.439700 0.292859
323.652300 3.471292
323.865000 0.217292
324.077700 0.508503
324.290400 0.866224
324.503100 0.419538
324.715800 3.399154
324.928500 0.427874
325.141200 3.384174
325.354000 0.585942
325.566800 3.389875
325.779600 0.474323
325.992400 3.314710
326.205200 3.542576
326.418000 3.474362
326.630800 0.470905
326.843700 3.057190
327.056600 0.190526
327.269400 0.658819
327.482300 0.687512
327.695200 0.352942
327.908200 0.201327
328.121100 0.728835
328.334000 0.337168
328.547000 0.847813
328.760000 0.308463
328.973000 1.343454
329.186000 0.822372
329.399000 0.776599
329.612000 0.466471
329.825100 0.726999
330.038100 0.885199
330.251200 1.393895
330.464300 0.689348
330.677400 0.504186
330.890500 0.397821
331.103600 3.526469
331.316700 1.604543
331.529900 1.248365
331.743100 0.655995
331.956200 0.654446
332.169400 0.467247
332.382600 0.851560
332.595900 0.471320
332.809100 0.676882
333.022300 0.316624
333.235600 0.427723
333.448900 0.416436
333.662200 0.276135
333.875500 3.666331
334.088800 0.202280
334.302100 1.369453
334.515400 0.843632
334.728800 1.083162
334.942200 1.068247
335.155500 0.476779
335.368900 2.358924
335.582300 0.662242
335.795800 3.676968
336.009200 1.036253
336.222700 0.707196
336.436100 0.567801
336.649600 0.771464
336.863100 0.844823
337.076600 1.117718
337.290100 0.937931
337.503600 1.196427
337.717200 0.678303
337.930700 3.722716
338.144300 0.443578
338.357900 0.552828
338.571500 1.046352
338.785100 1.053871
338.998700 3.739731
339.212400 0.711850
339.426000 0.829620
339.639700 0.959696
339.853300 3.765594
340.067000 0.870984
340.280700 0.467615
340.494500 0.783180
340.708200 0.901066
340.921900 0.952167
341.135700 0.545407
341.349500 0.860862
341.563300 1.112510
341.777100 3.818094
341.990900 0.537803
342.204700 0.984813
342.418500 0.811566
342.632400 1.716517
342.846300 0.644927
343.060100 1.160269
343.274000 0.439788
343.487900 3.871748
343.701900 0.631427
343.915800 0.635565
344.129700 1.070154
344.343700 0.518652
344.557700 1.381679
344.771700 0.639433
344.985700 0.670472
345.199700 3.834484
345.413700 0.960012
345.627700 0.606951
345.841800 0.626491
346.055900 1.444191
346.269900 0.880085
346.484000 1.393466
346.698100 0.661928
346.912300 0.861781
347.126400 0.908189
347.340600 1.067934
347.554700 1.254875
347.768900 1.257933
347.983100 0.838596
348.197300 0.847853
348.411500 0.647367
348.625700 1.124821
348.840000 0.741159
349.054200 0.628106
349.268500 3.952889
349.482800 0.960128
349.697100 3.921634
349.911400 3.877832
350.125700 0.807109
350.340000 0.743632
350.554400 0.721971
350.768700 0.974287
350.983100 1.060488
351.197500 0.823666
351.411900 0.655446
351.626300 3.954918
351.840700 1.145467
352.055200 0.598720
352.269600 1.053675
352.484100 0.862007
352.698600 1.041171
352.913100 1.189287
353.127600 2.048865
353.342100 1.910840
353.556600 0.987819
353.771200 4.007534
353.985800 0.870291
354.200300 1.455227
354.414900 1.273523
354.629500 1.463098
354.844100 1.015636
355.058800 1.343490
355.273400 3.971369
355.488100 0.857840
355.702700 1.249509
355.917400 3.938920
356.132100 0.845266
356.346800 2.584060
356.561500 0.565822
356.776300 1.498656
356.991000 0.996997
357.205800 0.954243
357.420600 1.039300
357.635300 0.661691
357.850100 0.977225
358.065000 2.329177
358.279800 1.110145
358.494600 1.000953
358.709500 0.784993
358.924300 2.149725
359.139200 0.811329
359.354100 1.512531
359.569000 0.862960
359.783900 0.598098
359.998900 0.950570
360.213800 0.931102
360.428800 0.710512
360.643800 0.916918
360.858700 0.816372
361.073700 1.709634
361.288800 0.726172
361.503800 1.109471
361.718800 1.664783
361.933900 1.164846
362.148900 1.258712
362.364000 0.788967
362.579100 1.124325
362.794200 0.878482
363.009300 2.409492
363.224500 0.973540
363.439600 0.886294
363.654800 1.749432
363.869900 1.849187
364.085100 4.019947
364.300300 4.010681
364.515500 1.718688
364.730800 0.959383
364.946000 0.966763
365.161200 0.723631
365.376500 1.457971
365.591800 0.981453
365.807100 0.713335
366.022400 1.238882
366.237700 0.981807
366.453000 1.708629
366.668400 4.089375
366.883700 4.063634
367.099100 0.967033
367.314500 1.479587
367.529900 1.337745
367.745300 0.926312
367.960700 1.758961
368.176100 0.751241
368.391600 4.101850
368.607000 1.601550
368.822500 4.111901
369.038000 4.150173
369.253500 1.494024
369.469000 0.923692
369.684500 1.348099
369.900100 1.152964
370.115600 1.210593
370.331200 0.921466
370.546800 1.097115
370.762400 1.845708
370.978000 1.276760
371.193600 0.887393
371.409200 4.124798
371.624900 0.806600
371.840500 1.810061
372.056200 1.247036
372.271900 1.517929
372.487600 0.985946
372.703300 0.885886
372.919000 1.834720
373.134800 1.020068
373.350500 1.126741
373.566300 2.210154
373.782000 1.043106
373.997800 1.351933
374.213600 1.692266
374.429400 1.016549
374.645300 1.299111
374.861100 1.284793
375.077000 1.204176
375.292800 0.943530
375.508700 1.562906
375.724600 4.210586
375.940500 0.974375
376.156400 1.379978
376.372400 1.359843
376.588300 0.868613
376.804300 1.999191
377.020300 1.416351
377.236200 1.177339
377.452200 1.052859
377.668200 1.536525
377.884300 4.260358
378.100300 1.646884
378.316400 4.291879
378.532400 1.153425
378.748500 1.078899
378.964600 1.084566
379.180700 1.267001
379.396800 0.811819
379.612900 1.446632
379.829100 1.566455
380.045200 2.050231
380.261400 4.315991
380.477600 1.545299
380.693800 1.434825
380.910000 1.118681
381.126200 1.703976
381.342400 1.425643
381.558700 1.337390
381.774900 1.457377
381.991200 1.081862
382.207500 1.281646
382.423800 1.162673
382.640100 1.196979
382.856400 0.967504
383.072800 4.319502
383.289100 1.262198
383.505500 1.776749
383.721900 1.239852
383.938200 1.508242
384.154600 1.716710
384.371100 1.668462
384.587500 1.442996
384.803900 1.351111
385.020400 1.461193
385.236800 1.851182
385.453300 1.095326
385.669800 1.381660
385.886300 1.031754
386.102800 1.215546
386.319400 1.629417
386.535900 2.041559
386.752500 1.471601
386.969000 1.243168
387.185600 3.760064
387.402200 1.451308
387.618800 1.731256
387.835500 1.076002
388.052100 1.200764
388.268700 2.075240
388.485400 1.414201
388.702100 1.341555
388.918800 1.404559
389.135500 1.324830
389.352200 1.342716
389.568900 1.145627
389.785600 1.086673
390.002400 4.385195
390.219200 1.471228
390.435900 1.247070
390.652700 1.254164
390.869500 1.282490
391.086300 1.150112
391.303200 1.254436
391.520000 1.062205
391.736900 1.139705
391.953700 1.032179
392.170600 1.485986
392.387500 1.634346
392.604400 1.152581
392.821300 0.970849
393.038300 1.905126
393.255200 1.411515
393.472200 1.086185
393.689100 0.996816
393.906100 1.249896
394.123100 0.976066
394.340100 1.332700
394.557200 0.890805
394.774200 1.013006
394.991200 1.185258
395.208300 1.190987
395.425400 0.945591
395.642500 1.026329
395.859600 1.091270
396.076700 1.043349
396.293800 1.172248
396.510900 0.969405
396.728100 0.923537
396.945300 1.063114
397.162400 0.954378
397.379600 0.966636
397.596800 0.869785
397.814000 1.081218
398.031300 0.918294
398.248500 1.081980
398.465800 0.950687
398.683000 0.956894
398.900300 1.021328
399.117600 1.154939
399.334900 0.890543
399.552200 0.965326
399.769600 0.835881
399.986900 0.832768
400.204300 0.786683
400.421600 1.003141
400.639000 0.930640
400.856400 0.899214
401.073800 1.028085
401.291200 0.900547
401.508700 0.952617
401.726100 0.859411
401.943600 0.930702
402.161000 0.887348
402.378500 0.719798
402.596000 0.918607
402.813500 0.784878
403.031000 0.839354
403.248600 0.771248
403.466100 0.847924
403.683700 0.844214
403.901300 0.750866
404.118900 0.812235
404.336500 0.767081
404.554100 0.796797
404.771700 0.742045
404.989300 0.725639
405.207000 0.782959
405.424600 0.731088
405.642300 0.790490
405.860000 0.753621
406.077700 0.817867
406.295400 0.745506
406.513100 0.717319
406.730900 0.652454
406.948600 0.756717
407.166400 0.730163
407.384200 0.683605
407.602000 0.796035
407.819800 0.642325
408.037600 0.703895
408.255400 0.660566
408.473300 0.664980
408.691100 0.725653
408.909000 0.692738
409.126900 0.664024
409.344800 0.683722
409.562700 0.688158
409.780600 0.660522
409.998500 0.622126
410.216500 0.656678
410.434400 0.634343
410.652400 0.679626
410.870400 0.697313
411.088400 0.603361
411.306400 0.619451
411.524400 0.631816
411.742400 0.632724
411.960500 0.624122
412.178500 0.596201
412.396600 0.593392
412.614700 0.508504
412.832800 0.670634
413.050900 0.580495
413.269000 0.573469
413.487100 0.633535
413.705300 0.661148
413.923400 0.564032
414.141600 0.543637
414.359800 0.610942
414.578000 0.521478
414.796200 0.586276
415.014400 0.507469
415.232600 0.528486
415.450900 0.603768
415.669200 0.525071
415.887400 0.596539
416.105700 0.561523
416.324000 0.538414
416.542300 0.573223
416.760600 0.525728
416.979000 0.515370
417.197300 0.495731
417.415700 0.511044
417.634100 0.529782
417.852400 0.546701
418.070800 0.523650
418.289300 0.555095
418.507700 0.519358
418.726100 0.476499
418.944600 0.435824
419.163000 0.477373
419.381500 0.510960
419.600000 0.493093
419.818500 0.468410
420.037000 0.501456
420.255500 0.512358
420.474100 0.492635
420.692600 0.510428
420.911200 0.498069
421.129800 0.534957
421.348300 0.467361
421.566900 0.505708
421.785600 0.480068
422.004200 0.462673
422.222800 0.453808
422.441500 0.531779
422.660100 0.449978
422.878800 0.481733
423.097500 0.439363
423.316200 0.445981
423.534900 0.435486
423.753600 0.462240
423.972400 0.447940
424.191100 0.479589
424.409900 0.410784
424.628700 0.426031
424.847500 0.472363
425.066300 0.470421
425.285100 0.412587
425.503900 0.396964
425.722800 0.402028
425.941600 0.480656
426.160500 0.404994
426.379300 0.454092
426.598200 0.445449
426.817100 0.436022
427.036100 0.488164
427.255000 0.422735
427.473900 0.397565
427.692900 0.455782
427.911800 0.471263
428.130800 0.403642
428.349800 0.452264
428.568800 0.421515
428.787800 0.407499
429.006800 0.419823
429.225900 0.422847
429.444900 0.443437
429.664000 0.430134
429.883100 0.426050
430.102200 0.439944
430.321300 0.438282
430.540400 0.432338
430.759500 0.441973
430.978700 0.433208
431.197800 0.425819
431.417000 0.408542
431.636200 0.392363
431.855300 0.346153
432.074500 0.474417
432.293800 0.371760
432.513000 0.443020
432.732200 0.368314
432.951500 0.434048
433.170700 0.432788
433.390000 0.372059
433.609300 0.415899
433.828600 0.406441
434.047900 0.429373
434.267300 0.388852
434.486600 0.401759
434.705900 0.413782
434.925300 0.357993
435.144700 0.409268
435.364100 0.406647
435.583500 0.402018
435.802900 0.351338
436.022300 0.425223
436.241800 0.437359
436.461200 0.406945
436.680700 0.364654
436.900100 0.390272
437.119600 0.423276
437.339100 0.391132
437.558600 0.447039
437.778200 0.384674
437.997700 0.379139
438.217300 0.405302
438.436800 0.398599
438.656400 0.382320
438.876000 0.429177
439.095600 0.382260
439.315200 0.414545
439.534800 0.383378
439.754500 0.395284
439.974100 0.466787
440.193800 0.426872
440.413500 0.422896
440.633100 0.441585
440.852800 0.370893
441.072500 0.416669
441.292300 0.418955
441.512000 0.434215
441.731800 0.410361
441.951500 0.449375
442.171300 0.391837
442.391100 0.407994
442.610900 0.433287
442.830700 0.422270
443.050500 0.417820
443.270300 0.389911
443.490200 0.438339
443.710100 0.434218
443.929900 0.408365
444.149800 0.448570
444.369700 0.427420
444.589600 0.416632
444.809500 0.434267
445.029500 0.452683
445.249400 0.460074
445.469400 0.441115
445.689400 0.428948
445.909300 0.414587
446.129300 0.427787
446.349300 0.419385
446.569400 0.461461
446.789400 0.424595
447.009400 0.431753
447.229500 0.480415
447.449600 0.456217
447.669600 0.450526
447.889700 0.461046
448.109800 0.454633
448.330000 0.399662
448.550100 0.475963
448.770200 0.447264
448.990400 0.439529
449.210600 0.462251
449.430700 0.475301
449.650900 0.492256
449.871100 0.453797
450.091400 0.476630
450.311600 0.453024
450.531800 0.427756
450.752100 0.453637
450.972400 0.442436
451.192600 0.447936
451.412900 0.484362
451.633200 0.483516
451.853500 0.475122
452.073900 0.527506
452.294200 0.488603
452.514600 0.471415
452.734900 0.472780
452.955300 0.449765
453.175700 0.487306
453.396100 0.521360
453.616500 0.495319
453.836900 0.464536
454.057400 0.519846
454.277800 0.464584
454.498300 0.536047
454.718800 0.493003
454.939300 0.474184
455.159700 0.508331
455.380300 0.497029
455.600800 0.494383
455.821300 0.536178
456.041900 0.536319
456.262400 0.443203
456.483000 0.526685
456.703600 0.537512
456.924200 0.513467
457.144800 0.504326
457.365400 0.485171
457.586000 0.516979
457.806700 0.515161
458.027400 0.535707
458.248000 0.513494
458.468700 0.585723
458.689400 0.569673
458.910100 0.577373
459.130800 0.507393
459.351600 0.604399
459.572300 0.554220
459.793100 0.586344
460.013800 0.524872
460.234600 0.534950
460.455400 0.568596
460.676200 0.562135
460.897000 0.600442
461.117800 0.559032
461.338700 0.517153
461.559500 0.590947
461.780400 0.565436
462.001300 0.627824
462.222200 0.544068
462.443100 0.606314
462.664000 0.639905
462.884900 0.590775
463.105900 0.580724
463.326800 0.615264
463.547800 0.596545
463.768700 0.591225
463.989700 0.703720
464.210700 0.613258
464.431700 0.605858
464.652800 0.660906
464.873800 0.618818
465.094800 0.649597
465.315900 0.658082
465.537000 0.692504
465.758100 0.632403
465.979200 0.712083
466.200300 0.685279
466.421400 0.663296
466.642500 0.721030
466.863700 0.629327
467.084800 0.673462
467.306000 0.648689
467.527200 0.679621
467.748400 0.651872
467.969600 0.699909
468.190800 0.667461
468.412000 0.706743
468.633300 0.683403
468.854500 0.676538
469.075800 0.721046
469.297000 0.722241
469.518300 0.674082
469.739600 0.656105
469.961000 0.702938
470.182300 0.716907
470.403600 0.742304
470.625000 0.692081
470.846300 0.762820
471.067700 0.706401
471.289100 0.794769
471.510500 0.774762
471.731900 0.834829
471.953300 0.784541
472.174800 0.796221
472.396200 0.809819
472.617700 0.835318
472.839100 0.797906
473.060600 0.750850
473.282100 0.944879
473.503600 0.800019
473.725100 0.817990
473.946700 0.819315
474.168200 0.789047
474.389800 0.743865
474.611300 0.756995
474.832900 0.758451
475.054500 0.807848
475.276100 0.800681
475.497700 0.798622
475.719300 0.791270
475.941000 0.743597
476.162600 0.839507
476.384300 0.905465
476.606000 0.789431
476.827700 0.911329
477.049400 0.862092
477.271100 0.855906
477.492800 0.976179
477.714500 0.871987
477.936300 0.924769
478.158000 0.903606
478.379800 0.874612
478.601600 0.953697
478.823400 0.833950
479.045200 0.935791
479.267000 0.986754
479.488800 0.898919
479.710700 0.870876
479.932500 0.959225
480.154400 0.886676
480.376300 1.007023
480.598200 1.020925
480.820100 0.967803
481.042000 0.921756
481.263900 0.907603
481.485900 0.877889
481.707800 1.010252
481.929800 0.995005
482.151700 1.002711
482.373700 0.943947
482.595700 0.864979
482.817700 0.944746
483.039800 1.164303
483.261800 1.028657
483.483800 0.944827
483.705900 1.091266
483.928000 1.064485
484.150100 0.964158
484.372100 1.106460
484.594300 0.966688
484.816400 0.950563
485.038500 1.039467
485.260600 0.964915
485.482800 1.158590
485.705000 1.109175
485.927100 1.080799
486.149300 1.137390
486.371500 1.093251
486.593700 1.094559
486.816000 1.115437
487.038200 1.078803
487.260500 1.185095
487.482700 1.071406
487.705000 1.121698
487.927300 1.130070
488.149600 1.100730
488.371900 1.087893
488.594200 1.095775
488.816500 0.920855
489.038900 1.112422
489.261200 1.114685
489.483600 1.073913
489.706000 1.175694
489.928400 1.101002
490.150800 1.218240
490.373200 1.055958
490.595600 1.168005
490.818000 1.125733
491.040500 1.201880
491.263000 1.036980
491.485400 1.111913
491.707900 1.159319
491.930400 1.279793
492.152900 1.133141
492.375500 1.087193
492.598000 1.042172
492.820500 1.097367
493.043100 1.197050
493.265700 1.242786
493.488200 1.077243
493.710800 1.059794
493.933400 1.105971
494.156100 1.236724
494.378700 1.020139
494.601300 1.213013
494.824000 1.277318
495.046600 1.033376
495.269300 1.091075
495.492000 1.291879
495.714700 1.000893
495.937400 1.122597
496.160100 1.204929
496.382900 1.179433
496.605600 1.111940
496.828400 1.452881
497.051100 1.171579
497.273900 1.095907
497.496700 1.071961
497.719500 1.019398
497.942300 1.191140
498.165200 1.269238
498.388000 1.069293
498.610900 1.268971
498.833700 1.007445
499.056600 1.247806
499.279500 1.178136
499.502400 1.294672
499.725300 1.245671
499.948200 1.196607
500.171200 1.149308
500.394100 1.172110
500.617100 1.124775
500.840000 1.331584
501.063000 1.294759
501.286000 1.327821
501.509000 1.068245
501.732000 1.401023
501.955100 1.238953
502.178100 1.342374
502.401200 1.105093
502.624200 1.171032
502.847300 1.091062
503.070400 1.130952
503.293500 1.197866
503.516600 1.408464
503.739700 1.291813
503.962800 1.337901
504.186000 1.321943
504.409200 1.170611
504.632300 1.442355
504.855500 1.351147
505.078700 1.403436
505.301900 1.194610
505.525100 1.286661
505.748300 1.377884
505.971600 1.246909
506.194800 1.398017
506.418100 1.255191
506.641400 1.136505
506.864700 1.084765
507.088000 1.205726
507.311300 1.594755
507.534600 1.133788
507.757900 1.001940
507.981300 1.138567
508.204600 1.293065
508.428000 1.235653
508.651400 1.275068
508.874800 1.142673
509.098200 1.134479
509.321600 1.395705
509.545000 1.262406
509.768500 1.564574
509.991900 1.106026
510.215400 1.461839
510.438800 1.158581
510.662300 1.208696
510.885800 0.956514
511.109300 1.480851
511.332900 1.355539
511.556400 1.539885
511.779900 1.283247
512.003500 1.487919
512.227000 0.983324
512.450600 1.330665
512.674200 1.394484
512.897800 1.101806
513.121400 1.340020
513.345100 1.313337
513.568700 1.228904
513.792300 1.056959
514.016000 1.242352
514.239700 1.255518
514.463400 1.161422
514.687100 1.376186
514.910800 1.168254
515.134500 1.259379
515.358200 1.268236
515.581900 1.176850
515.805700 1.124942
516.029500 1.166465
516.253200 1.061889
516.477000 1.147486
516.700800 1.085634
516.924600 1.251395
517.148500 1.096757
517.372300 1.216570
517.596100 1.272807
517.820000 1.195017
518.043900 1.265342
518.267700 1.195404
518.491600 1.022076
518.715500 1.372247
518.939500 1.226179
519.163400 1.225850
519.387300 1.172714
519.611300 0.941044
519.835200 0.967100
520.059200 1.247232
520.283200 1.087362
520.507200 1.452909
520.731200 0.922600
520.955200 1.177503
521.179200 1.132336
521.403300 0.999332
521.627300 1.082984
521.851400 1.108907
522.075500 1.121890
522.299600 1.139429
522.523700 1.063700
522.747800 0.976763
522.971900 0.975636
523.196000 1.161305
523.420200 1.193606
523.644300 1.530293
523.868500 1.206179
524.092700 1.061360
524.316900 0.945480
524.541100 0.984082
524.765300 1.033394
524.989500 0.985284
525.213800 0.964024
525.438000 1.033572
525.662300 1.044499
525.886500 0.954686
526.110800 0.916025
526.335100 1.014846
526.559400 0.867332
526.783700 0.862227
527.008100 1.064124
527.232400 0.966510
527.456800 1.125042
527.681100 0.950384
527.905500 0.909018
528.129900 1.001412
528.354300 1.058438
528.578700 0.964359
528.803100 1.160182
529.027600 0.918171
529.252000 1.023113
529.476500 0.839885
529.700900 1.092760
529.925400 0.948434
530.149900 0.940032
530.374400 0.958468
530.598900 0.950120
530.823400 1.042408
531.048000 0.891946
531.272500 0.888337
531.497100 0.907633
531.721700 0.931608
531.946200 0.884470
532.170800 0.783302
532.395400 0.785731
532.620000 1.012515
532.844700 0.806671
533.069300 0.846936
533.294000 0.931506
533.518600 0.842904
533.743300 0.931216
533.968000 0.964339
534.192700 0.876167
534.417400 0.819561
534.642100 0.936155
534.866800 0.862365
535.091600 0.868406
535.316300 0.795146
535.541100 0.841580
535.765900 0.833550
535.990700 0.777889
536.215500 0.752125
536.440300 0.805249
536.665100 0.824495
536.889900 0.816207
537.114800 0.819885
537.339600 0.846861
537.564500 0.710979
537.789400 0.875984
538.014300 0.735914
538.239200 0.844045
538.464100 0.803000
538.689000 0.665516
538.913900 0.745479
539.138900 0.760113
539.363800 0.724779
539.588800 0.721685
539.813800 0.820437
540.038800 0.697839
540.263800 0.742661
540.488800 0.722035
540.713800 0.647380
540.938900 0.673487
541.163900 0.749008
541.389000 0.714189
541.614000 0.737742
541.839100 0.722637
542.064200 0.690918
542.289300 0.713722
542.514400 0.709562
542.739600 0.698091
542.964700 0.664972
543.189900 0.636709
543.415000 0.686080
543.640200 0.622319
543.865400 0.656896
544.090600 0.669293
544.315800 0.684475
544.541000 0.624648
544.766200 0.629840
544.991500 0.640885
545.216700 0.664046
545.442000 0.622527
545.667300 0.664017
545.892600 0.643479
546.117900 0.580393
546.343200 0.601600
546.568500 0.575923
546.793800 0.645119
547.019200 0.577205
547.244500 0.559988
547.469900 0.585670
547.695300 0.588765
547.920600 0.549066
548.146000 0.551364
548.371500 0.578130
548.596900 0.545977
548.822300 0.508215
549.047800 0.505887
549.273200 0.551528
549.498700 0.491626
549.724200 0.546756
549.949600 0.552919
550.175100 0.487148
550.400700 0.525862
550.626200 0.526475
550.851700 0.580131
551.077300 0.491500
551.302800 0.533478
551.528400 0.456962
551.754000 0.481884
551.979600 0.445139
552.205200 0.488261
552.430800 0.530366
552.656400 0.458827
552.882000 0.442231
553.107700 0.476730
553.333300 0.434060
553.559000 0.480015
553.784700 0.483024
554.010400 0.481860
554.236100 0.458589
554.461800 0.441113
554.687500 0.450320
554.913200 0.460870
555.139000 0.420916
555.364800 0.398016
555.590500 0.375521
555.816300 0.424468
556.042100 0.416244
556.267900 0.429977
556.493700 0.414400
556.719500 0.414600
556.945400 0.365948
557.171200 0.379741
557.397100 0.408326
557.623000 0.420879
557.848800 0.399276
558.074700 0.381855
558.300600 0.392370
558.526600 0.384045
558.752500 0.360477
558.978400 0.348986
559.204400 0.353291
559.430300 0.385930
559.656300 0.361866
559.882300 0.329051
560.108300 0.337920
560.334300 0.342513
560.560300 0.352219
560.786300 0.366223
561.012400 0.354713
561.238400 0.326808
561.464500 0.339424
561.690500 0.358592
561.916600 0.326126
562.142700 0.317178
562.368800 0.339177
562.594900 0.338380
562.821100 0.313504
563.047200 0.322926
563.273300 0.277910
563.499500 0.293019
563.725700 0.316030
563.951900 0.298964
564.178100 0.289647
564.404300 0.307618
564.630500 0.308013
564.856700 0.301952
565.082900 0.311650
565.309200 0.277259
565.535500 0.311633
565.761700 0.268899
565.988000 0.283121
566.214300 0.273492
566.440600 0.271577
566.666900 0.292077
566.893200 0.269477
567.119600 0.279727
567.345900 0.279903
567.572300 0.282716
567.798700 0.269701
568.025000 0.269723
568.251400 0.256633
568.477800 0.267410
568.704300 0.257367
568.930700 0.252929
569.157100 0.267083
569.383600 0.257470
569.610000 0.245907
569.836500 0.263536
570.063000 0.250020
570.289500 0.256556
570.516000 0.264039
570.742500 0.235114
570.969000 0.257205
571.195600 0.255545
571.422100 0.241200
571.648700 0.241006
571.875200 0.244563
572.101800 0.234511
572.328400 0.257595
572.555000 0.247603
572.781600 0.235461
573.008200 0.241970
573.234900 0.227403
573.461500 0.236485
573.688200 0.229755
573.914900 0.231667
574.141500 0.224201
574.368200 0.216118
574.594900 0.216583
574.821600 0.213114
575.048400 0.221794
575.275100 0.229236
575.501800 0.204378
575.728600 0.217843
575.955400 0.215958
576.182100 0.233345
576.408900 0.211670
576.635700 0.212466
576.862600 0.215215
577.089400 0.201280
577.316200 0.207529
577.543100 0.213684
577.769900 0.208159
577.996800 0.193754
578.223700 0.205681
578.450500 0.199607
578.677400 0.201395
578.904400 0.188422
579.131300 0.208207
579.358200 0.194736
579.585100 0.190702
579.812100 0.193131
580.039100 0.186378
580.266000 0.183106
580.493000 0.181883
580.720000 0.185852
580.947000 0.182320
581.174100 0.178463
581.401100 0.171838
581.628100 0.176056
581.855200 0.167520
582.082200 0.178735
582.309300 0.174375
582.536400 0.182836
582.763500 0.164008
582.990600 0.170193
583.217700 0.171647
583.444900 0.169983
583.672000 0.170255
583.899100 0.182406
584.126300 0.169805
584.353500 0.159585
584.580700 0.172333
584.807900 0.179967
585.035100 0.167649
585.262300 0.169773
585.489500 0.167989
585.716700 0.151485
585.944000 0.160838
586.171300 0.166004
586.398500 0.167863
586.625800 0.156322
586.853100 0.155547
587.080400 0.150898
587.307700 0.149511
587.535000 0.167920
587.762400 0.152359
587.989700 0.158121
588.217100 0.153968
588.444500 0.156550
588.671800 0.156436
588.899200 0.158665
589.126600 0.144898
589.354000 0.157304
589.581500 0.149566
589.808900 0.141299
590.036300 0.152911
590.263800 0.155991
590.491300 0.146699
590.718700 0.149482
590.946200 0.145284
591.173700 0.153421
591.401200 0.157973
591.628800 0.150839
591.856300 0.143342
592.083800 0.124464
592.311400 0.154728
592.538900 0.136169
592.766500 0.145902
592.994100 0.140999
593.221700 0.144469
593.449300 0.141718
593.676900 0.130499
593.904600 0.145178
594.132200 0.125484
594.359800 0.128456
594.587500 0.125834
594.815200 0.138110
595.042900 0.138147
595.270500 0.140438
595.498300 0.145187
595.726000 0.139099
595.953700 0.142234
596.181400 0.145537
596.409200 0.137550
596.636900 0.153677
596.864700 0.157282
597.092500 0.136778
597.320300 0.145505
597.548100 0.142653
597.775900 0.143362
598.003700 0.138032
598.231500 0.143619
598.459400 0.153894
598.687200 0.136913
598.915100 0.153010
599.143000 0.135161
599.370900 0.130017
599.598800 0.124887
599.826700 0.132496
600.054600 0.133635
600.282500 0.130584
600.510500 0.134558
600.738400 0.121712
600.966400 0.126919
601.194400 0.119507
601.422300 0.135166
601.650300 0.122511
601.878300 0.133965
602.106400 0.131748
602.334400 0.134127
602.562400 0.134552
602.790500 0.128633
603.018500 0.120255
603.246600 0.129345
603.474700 0.122019
603.702800 0.122249
603.930900 0.135351
604.159000 0.131639
604.387100 0.129988
604.615200 0.115443
604.843400 0.126844
605.071500 0.117928
605.299700 0.120432
605.527900 0.120774
605.756100 0.123658
605.984300 0.113361
606.212500 0.112481
606.440700 0.108552
606.668900 0.119808
606.897200 0.114176
607.125400 0.115863
607.353700 0.108766
607.581900 0.126420
607.810200 0.110493
608.038500 0.118387
608.266800 0.111251
608.495100 0.105698
608.723500 0.093269
608.951800 0.123121
609.180100 0.090182
609.408500 0.113316
609.636900 0.109098
609.865300 0.099274
610.093600 0.109128
610.322000 0.123682
610.550500 0.111923
610.778900 0.112528
611.007300 0.117221
611.235700 0.121759
611.464200 0.111069
611.692700 0.111248
611.921100 0.114390
612.149600 0.102149
612.378100 0.117509
612.606600 0.107134
612.835100 0.116171
613.063700 0.110043
613.292200 0.109541
613.520800 0.118972
613.749300 0.102252
613.977900 0.120462
614.206500 0.107417
614.435100 0.113896
614.663700 0.124528
614.892300 0.113635
615.120900 0.109311
615.349500 0.117627
615.578200 0.108897
615.806800 0.097996
616.035500 0.102600
616.264200 0.112240
616.492900 0.107424
616.721600 0.110146
616.950300 0.111823
617.179000 0.109925
617.407700 0.112156
617.636500 0.107934
617.865200 0.116664
618.094000 0.114934
618.322700 0.112944
618.551500 0.092157
618.780300 0.102824
619.009100 0.102851
619.237900 0.118581
619.466700 0.104542
619.695600 0.101722
619.924400 0.104248
620.153300 0.114316
620.382100 0.106833
620.611000 0.102740
620.839900 0.097835
621.068800 0.101433
621.297700 0.104328
621.526600 0.100970
621.755600 0.104424
621.984500 0.106476
622.213500 0.104896
622.442400 0.096905
622.671400 0.104602
622.900400 0.107527
623.129400 0.109226
623.358400 0.127601
623.587400 0.119455
623.816400 0.102336
624.045400 0.110036
624.274500 0.108258
624.503500 0.097653
624.732600 0.098281
624.961700 0.107831
625.190800 0.095003
625.419900 0.087652
625.649000 0.102524
625.878100 0.100851
626.107200 0.092215
626.336400 0.109657
626.565500 0.104382
626.794700 0.101744
627.023800 0.090067
627.253000 0.100820
627.482200 0.107511
627.711400 0.080152
627.940600 0.093338
628.169800 0.094634
628.399100 0.107713
628.628300 0.083677
628.857600 0.094195
629.086800 0.095293
629.316100 0.097061
629.545400 0.089954
629.774700 0.109194
630.004000 0.094414
630.233300 0.100452
630.462600 0.086755
630.692000 0.107323
630.921300 0.104106
631.150700 0.112470
631.380100 0.103652
631.609400 0.100672
631.838800 0.115194
632.068200 0.094315
632.297600 0.083646
632.527100 0.107643
632.756500 0.091563
632.985900 0.110612
633.215400 0.105703
633.444800 0.109176
633.674300 0.085838
633.903800 0.101761
634.133300 0.091112
634.362800 0.088817
634.592300 0.115048
634.821800 0.112678
635.051400 0.124389
635.280900 0.110816
635.510500 0.089960
635.740000 0.106568
635.969600 0.116409
636.199200 0.093368
636.428800 0.085916
636.658400 0.074661
636.888000 0.080637
637.117700 0.085123
637.347300 0.102652
637.577000 0.097902
637.806600 0.127814
638.036300 0.113457
638.266000 0.096657
638.495700 0.101167
638.725400 0.084527
638.955100 0.078867
639.184800 0.101250
639.414500 0.104931
639.644300 0.100552
639.874000 0.072270
640.103800 0.087035
640.333600 0.076153
640.563300 0.090243
640.793100 0.076843
641.022900 0.094510
641.252800 0.093940
641.482600 0.130110
641.712400 0.070551
641.942300 0.105259
642.172100 0.099620
642.402000 0.092163
642.631900 0.068833
642.861700 0.092372
643.091600 0.138081
643.321600 0.132320
643.551500 0.063980
643.781400 0.146688
644.011300 0.100045
644.241300 0.080409
644.471200 0.103743
644.701200 0.103565
644.931200 0.111654
645.161200 0.096859
645.391200 0.085847
645.621200 0.143589
645.851200 0.046509
646.081200 0.119392
646.311300 0.148586
646.541300 0.143342
646.771400 0.060184
647.001500 0.075904
647.231600 0.033558
647.461600 0.116534
647.691800 0.085699
647.921900 0.084134
648.152000 0.122699
648.382100 0.085035
648.612300 0.074280
648.842400 0.064320
649.072600 0.079169
649.302800 0.057290
649.532900 0.120482
649.763100 0.101679
649.993300 0.080282
650.223600 0.121821
650.453800 0.078706
650.684000 0.074915
650.914300 0.077651
651.144500 0.127221
651.374800 0.120700
651.605100 0.100810
651.835400 0.085982
652.065700 0.097193
652.296000 0.065263
652.526300 0.079515
652.756600 0.057567
652.987000 0.087182
653.217300 0.058551
653.447700 0.101895
653.678000 0.044959
653.908400 0.079270
654.138800 0.099430
654.369200 0.107977
654.599600 0.093192
654.830000 0.119011
655.060500 0.162425
655.290900 0.165672
655.521300 0.145811
655.751800 0.109422
655.982300 -0.002891
656.212800 -0.000972
656.443300 -0.001453
656.673800 -0.001228
656.904300 0.056387
657.134800 0.110146
657.365300 0.110567
657.595900 0.109967
657.826400 0.109503
658.057000 0.116789
658.287500 0.122338
658.518100 0.118341
658.748700 0.113457
658.979300 0.120715
659.209900 0.150025
659.440600 0.159459
659.671200 0.178731
659.901800 0.193805
660.132500 0.150749
660.363200 0.142625
660.593800 0.145568
660.824500 0.076003
661.055200 0.107336
661.285900 0.109036
661.516600 0.113307
661.747400 0.110981
661.978100 0.086202
662.208800 0.098271
662.439600 0.096145
662.670400 0.113224
662.901100 0.102653
663.131900 0.097030
663.362700 0.087582
663.593500 0.115056
663.824300 0.131546
664.055200 0.062332
664.286000 0.098758
664.516800 0.115306
664.747700 0.097705
664.978600 0.122319
665.209400 0.068507
665.440300 0.126479
665.671200 0.095411
665.902100 0.088878
666.133000 0.101922
666.364000 0.120512
666.594900 0.077417
666.825900 0.107094
667.056800 0.102249
667.287800 0.116869
667.518800 0.116361
667.749700 0.092339
667.980700 0.056348
668.211700 0.091657
668.442800 0.071368
668.673800 0.130821
668.904800 0.052500
669.135900 0.087371
669.366900 0.077575
669.598000 0.089992
669.829100 0.089213
670.060200 0.076973
670.291300 0.133633
670.522400 0.124744
670.753500 0.081536
670.984600 0.093866
671.215700 0.100015
671.446900 0.170358
671.678100 0.062441
671.909200 0.096087
672.140400 0.079714
672.371600 0.087910
672.602800 0.072834
672.834000 0.083792
673.065200 0.079484
673.296400 0.086350
673.527700 0.099871
673.758900 0.085431
673.990200 0.107336
674.221400 0.054235
674.452700 0.101753
674.684000 0.090990
674.915300 0.109796
675.146600 0.096854
675.377900 0.070974
675.609300 0.086212
675.840600 0.086490
676.071900 0.080491
676.303300 0.117130
676.534700 0.057848
676.766100 0.120885
676.997400 0.112953
677.228800 0.082938
677.460200 0.136894
677.691700 0.081934
677.923100 0.080089
678.154500 0.074459
678.386000 0.085036
678.617400 0.083679
678.848900 0.100841
679.080400 0.111527
679.311900 0.104713
679.543400 0.073905
679.774900 0.070965
680.006400 0.090101
680.237900 0.087579
680.469400 0.101925
680.701000 0.101702
680.932500 0.104761
681.164100 0.085712
681.395700 0.104944
681.627300 0.065574
681.858900 0.075426
682.090500 0.098194
682.322100 0.081212
682.553700 0.088130
682.785400 0.073989
683.017000 0.113781
683.248700 0.110718
683.480300 0.088129
683.712000 0.075240
683.943700 0.070272
684.175400 0.098457
684.407100 0.110997
684.638800 0.068505
684.870500 0.096293
685.102300 0.102359
685.334000 0.080593
685.565800 0.125947
685.797500 0.130508
686.029300 0.070737
686.261100 0.084835
686.492900 0.105259
686.724700 0.112934
686.956500 0.092329
687.188300 0.103783
687.420200 0.086359
687.652000 0.082274
687.883800 0.101246
688.115700 0.091828
688.347600 0.119050
688.579500 0.083126
688.811400 0.105931
689.043300 0.106582
689.275200 0.085178
689.507100 0.076107
689.739000 0.087409
689.971000 0.080795
690.202900 0.118594
690.434900 0.069219
690.666900 0.089180
690.898800 0.115422
691.130800 0.082961
691.362800 0.095922
691.594800 0.090485
691.826900 0.084313
692.058900 0.069302
692.290900 0.098395
692.523000 0.123014
692.755000 0.108284
692.987100 0.117971
693.219200 0.094014
693.451300 0.116186
693.683400 0.108704
693.915500 0.076799
694.147600 0.078758
694.379700 0.092685
694.611900 0.069025
694.844000 0.094368
695.076200 0.099214
695.308300 0.107452
695.540500 0.097103
695.772700 0.071843
696.004900 0.105342
696.237100 0.119856
696.469300 0.088007
696.701600 0.082182
696.933800 0.107543
697.166000 0.082091
697.398300 0.096335
697.630600 0.082432
697.862800 0.112477
698.095100 0.118409
698.327400 0.092785
698.559700 0.105286
698.792000 0.051676
699.024300 0.103440
699.256700 0.083943
699.489000 0.088437
699.721400 0.123421
699.953700 0.074364
700.186100 0.087231
700.418500 0.063108
700.650900 0.096763
700.883300 0.083227
701.115700 0.110935
701.348100 0.034074
701.580600 0.130942
701.813000 0.099121
702.045400 0.080133
702.277900 0.088915
702.510400 0.096022
702.742900 0.076865
702.975300 0.097279
703.207800 0.087285
703.440300 0.092103
703.672900 0.113870
703.905400 0.074410
704.137900 0.123162
704.370500 0.102699
704.603000 0.110206
704.835600 0.077659
705.068200 0.067116
705.300800 0.109456
705.533400 0.062377
705.766000 0.115293
705.998600 0.147856
706.231200 0.073313
706.463800 0.099279
706.696500 0.077764
706.929100 0.091536
707.161800 0.042151
707.394500 0.087424
707.627200 0.082023
707.859900 0.115307
708.092600 0.133865
708.325300 0.075877
708.558000 0.059043
708.790700 0.100720
709.023500 0.122272
709.256200 0.049552
709.489000 0.085447
709.721700 0.094648
709.954500 0.063965
710.187300 0.038479
710.420100 0.076849
710.652900 0.097654
710.885700 0.079951
711.118600 0.061728
711.351400 0.090132
711.584200 0.076543
711.817100 0.097484
712.050000 0.092206
712.282800 0.056412
712.515700 0.090225
712.748600 0.081419
712.981500 0.091493
713.214400 0.118735
713.447400 0.056194
713.680300 0.073251
713.913200 0.072371
714.146200 0.087811
714.379100 0.084340
714.612100 0.097898
714.845100 0.083734
715.078100 0.110577
715.311100 0.044590
715.544100 0.092672
715.777100 0.074216
716.010200 0.065463
716.243200 0.036002
716.476200 0.089944
716.709300 0.098821
716.942400 0.083641
717.175400 0.061442
717.408500 0.066983
717.641600 0.081096
717.874700 0.100238
718.107800 0.088601
718.341000 0.096602
718.574100 0.095968
718.807200 0.102632
719.040400 0.109617
719.273600 0.080271
719.506700 0.118166
719.739900 0.086115
719.973100 0.082253
720.206300 0.069389
720.439500 0.060299
720.672700 0.086133
720.906000 0.083743
721.139200 0.081107
721.372500 0.107546
721.605700 0.087695
721.839000 0.091134
722.072300 0.112248
722.305500 0.074159
722.538800 0.106546
722.772100 0.054651
723.005500 0.079294
723.238800 0.058743
723.472100 0.088044
723.705500 0.125801
723.938800 0.105062
724.172200 0.080210
724.405600 0.085777
724.638900 0.122139
724.872300 0.070246
725.105700 0.083213
725.339100 0.102146
725.572600 0.084834
725.806000 0.084668
726.039400 0.097173
726.272900 0.086928
726.506300 0.077354
726.739800 0.084638
726.973300 0.080112
727.206800 0.080231
727.440300 0.093163
727.673800 0.124067
727.907300 0.103680
728.140800 0.114438
728.374300 0.083921
728.607900 0.075887
728.841400 0.081387
729.075000 0.099258
729.308600 0.088001
729.542100 0.092542
729.775700 0.075291
730.009300 0.088140
730.242900 0.067607
730.476600 0.137463
730.710200 0.080800
730.943800 0.115603
731.177500 0.112069
731.411100 0.079464
731.644800 0.101241
731.878500 0.094333
732.112200 0.064795
732.345800 0.084035
732.579500 0.102869
732.813300 0.090286
733.047000 0.091039
733.280700 0.125884
733.514500 0.094918
733.748200 0.109416
733.982000 0.110805
734.215700 0.102741
734.449500 0.110586
734.683300 0.094521
734.917100 0.082378
735.150900 0.074233
735.384700 0.100254
735.618500 0.087709
735.852400 0.107293
736.086200 0.097192
736.320100 0.082623
736.553900 0.093162
736.787800 0.094648
737.021700 0.095528
737.255600 0.083241
737.489500 0.056981
737.723400 0.077071
737.957300 0.082827
738.191200 0.071120
738.425200 0.092116
738.659100 0.088631
738.893100 0.061994
739.127100 0.101623
739.361000 0.118368
739.595000 0.102049
739.829000 0.085297
740.063000 0.045201
740.297000 0.103491
740.531000 0.101001
740.765100 0.081593
740.999100 0.096533
741.233200 0.084076
741.467200 0.095706
741.701300 0.053506
741.935400 0.093668
742.169500 0.081684
742.403600 0.082868
742.637700 0.068627
742.871800 0.067419
743.105900 0.052112
743.340000 0.070839
743.574200 0.071940
743.808300 0.086833
744.042500 0.052484
744.276700 0.072491
744.510800 0.093578
744.745000 0.064681
744.979200 0.120602
745.213400 0.090271
745.447700 0.081367
745.681900 0.101967
745.916100 0.104323
746.150400 0.092279
746.384600 0.110402
746.618900 0.040550
746.853200 0.138463
747.087400 0.112276
747.321700 0.100834
747.556000 0.087212
747.790300 0.075616
748.024700 0.040646
748.259000 0.086959
748.493300 0.083972
748.727700 0.091976
748.962000 0.076071
749.196400 0.096070
749.430800 0.106450
749.665200 0.092501
749.899500 0.121620
750.133900 0.099169
750.368400 0.054097
750.602800 0.066225
750.837200 0.058853
751.071700 0.096918
751.306100 0.111835
751.540600 0.087866
751.775000 0.103143
752.009500 0.063171
752.244000 0.076912
752.478500 0.071284
752.713000 0.066747
752.947500 0.077447
753.182000 0.105395
753.416600 0.065671
753.651100 0.111196
753.885600 0.087362
754.120200 0.129317
754.354800 0.087908
754.589400 0.067107
754.823900 0.111599
755.058500 0.071679
755.293100 0.093041
755.527800 0.080724
755.762400 0.088278
755.997000 0.103228
756.231700 0.099874
756.466300 0.101390
756.701000 0.087210
756.935600 0.071448
757.170300 0.081819
757.405000 0.103784
757.639700 0.095629
757.874400 0.086487
758.109100 0.084779
758.343800 0.100444
758.578600 0.104222
758.813300 0.102956
759.048100 0.108501
759.282800 0.116717
759.517600 0.117432
759.752400 0.122267
759.987200 0.099903
760.222000 0.080039
760.456800 0.101356
760.691600 0.095886
760.926400 0.068723
761.161300 0.089529
761.396100 0.060636
761.631000 0.104691
761.865800 0.118102
762.100700 0.097366
762.335600 0.100536
762.570500 0.111517
762.805400 0.085431
763.040300 0.061969
763.275200 0.084560
763.510100 0.108043
763.745000 0.107563
763.980000 0.113889
764.214900 0.096073
764.449900 0.090098
764.684900 0.080975
764.919800 0.068096
765.154800 0.104089
765.389800 0.082507
765.624800 0.102368
765.859900 0.083370
766.094900 0.079984
766.329900 0.097149
766.565000 0.080283
766.800000 0.079851
767.035100 0.122369
767.270100 0.071348
767.505200 0.071211
767.740300 0.083442
767.975400 0.085694
768.210500 0.083567
768.445600 0.101843
768.680800 0.093472
768.915900 0.115059
769.151000 0.081225
769.386200 0.090622
769.621400 0.086632
769.856500 0.115699
770.091700 0.104306
770.326900 0.068489
770.562100 0.072292
770.797300 0.105144
771.032500 0.062352
771.267700 0.080591
771.503000 0.101007
771.738200 0.109176
771.973500 0.073009
772.208700 0.087268
772.444000 0.088456
772.679300 0.093315
772.914600 0.099784
773.149900 0.055589
773.385200 0.052925
773.620500 0.089861
773.855800 0.099236
774.091100 0.099203
774.326500 0.103708
774.561800 0.066743
774.797200 0.110908
775.032600 0.111740
775.267900 0.049561
775.503300 0.070465
775.738700 0.094509
775.974100 0.088161
776.209500 0.095584
776.445000 0.103026
776.680400 0.139793
776.915800 0.065745
777.151300 0.097407
777.386800 0.079269
777.622200 0.080732
777.857700 0.083490
778.093200 0.119828
778.328700 0.066622
778.564200 0.072555
778.799700 0.106559
779.035200 0.087443
779.270700 0.098836
779.506300 0.074340
779.741800 0.072418
779.977400 0.067255
780.213000 0.087777
780.448500 0.104003
780.684100 0.057371
780.919700 0.105019
781.155300 0.058066
781.390900 0.083985
781.626500 0.083365
781.862200 0.125257
782.097800 0.112178
782.333500 0.060332
782.569100 0.125480
782.804800 0.086045
783.040500 0.079806
783.276100 0.080112
783.511800 0.078117
783.747500 0.074427
783.983200 0.111330
784.219000 0.115017
784.454700 0.075243
784.690400 0.086683
784.926200 0.092949
785.161900 0.140144
785.397700 0.095627
785.633500 0.037224
785.869200 0.094888
786.105000 0.116099
786.340800 0.120326
786.576600 0.083331
786.812400 0.149806
787.048300 0.104859
787.284100 0.108749
787.519900 0.059151
787.755800 0.088054
787.991700 0.068051
788.227500 0.063466
788.463400 0.070505
788.699300 0.096104
788.935200 0.078946
789.171100 0.098538
789.407000 0.084074
789.642900 0.083090
789.878900 0.080187
790.114800 0.073504
790.350700 0.056493
790.586700 0.109093
790.822700 0.078644
791.058600 0.057026
791.294600 0.089005
791.530600 0.102102
791.766600 0.097683
792.002600 0.078753
792.238700 0.071003
792.474700 0.088745
792.710700 0.101468
792.946800 0.037873
793.182800 0.047555
793.418900 0.088421
793.655000 0.121629
793.891000 0.101213
794.127100 0.104909
794.363200 0.108722
794.599300 0.044878
794.835500 0.073980
795.071600 0.106405
795.307700 0.109891
795.543900 0.062427
795.780000 0.096657
796.016200 0.122400
796.252300 0.096413
796.488500 0.097041
796.724700 0.129191
796.960900 0.096424
797.197100 0.102821
797.433300 0.031891
797.669500 0.091370
797.905800 0.075973
798.142000 0.074416
798.378300 0.069217
798.614500 0.084654
798.850800 0.084462
799.087100 0.104959
799.323300 0.041185
799.559600 0.061544
799.795900 0.106963
800.032200 0.055097
800.268600 0.057034
800.504900 0.123295
800.741200 0.080496
800.977600 0.085063
801.213900 0.096688
801.450300 0.093191
801.686700 0.092907
801.923000 0.079951
802.159400 0.092365
802.395800 0.087297
802.632200 0.061992
802.868600 0.054365
803.105100 0.105760
803.341500 0.040789
803.577900 0.094819
803.814400 0.057453
804.050800 0.014394
804.287300 0.089155
804.523800 0.072736
804.760300 0.109949
804.996800 0.036575
805.233300 0.115295
805.469800 0.093919
805.706300 0.125750
805.942800 0.050330
806.179400 0.052447
806.415900 0.108494
806.652500 0.080968
806.889000 0.085000
807.125600 0.101183
807.362200 0.059515
807.598800 0.107894
807.835400 0.075440
808.072000 0.093584
808.308600 0.148483
808.545200 0.075907
808.781800 0.050405
809.018500 0.083435
809.255100 0.100548
809.491800 0.097702
809.728400 0.069993
809.965100 0.091328
810.201800 0.043078
810.438500 0.098560
810.675200 0.050636
810.911900 0.079222
811.148600 0.038241
811.385300 0.041333
811.622100 0.050727
811.858800 0.060256
812.095600 0.014710
812.332300 0.088738
812.569100 0.080467
812.805900 0.081515
813.042700 0.097788
813.279500 0.060262
813.516300 0.027119
813.753100 0.111299
813.989900 0.101047
814.226700 0.122276
814.463600 0.028541
814.700400 0.079346
814.937300 0.092038
815.174200 0.096474
815.411000 0.067091
815.647900 0.044711
815.884800 0.049297
816.121700 0.102201
816.358600 0.055908
816.595500 0.050133
816.832400 0.055325
817.069400 0.061687
817.306300 0.133691
817.543300 0.072618
817.780200 0.032941
818.017200 0.091306
818.254200 0.108634
818.491200 -0.031893
818.728200 0.123964
818.965200 0.117456
819.202200 0.078295
819.439200 0.052771
819.676200 0.033191
819.913300 0.046193
820.150300 0.092166
820.387400 0.141526
820.624400 0.124139
820.861500 0.098283
821.098600 0.091756
821.335700 0.168816
821.572700 0.099371
821.809900 0.050214
822.047000 0.107962
822.284100 0.084311
822.521200 0.098827
822.758400 0.063105
822.995500 0.096666
823.232700 0.065371
823.469800 0.071690
823.707000 0.104123
823.944200 0.068665
824.181400 0.106575
824.418600 0.185504
824.655800 0.007466
824.893000 0.065368
825.130200 0.046814
825.367500 0.095138
825.604700 0.163921
825.841900 0.089482
826.079200 0.072697
826.316500 0.066521
826.553700 0.092619
826.791000 0.095660
827.028300 0.069314
827.265600 0.073161
827.502900 0.058899
827.740200 0.140420
827.977600 0.062501
828.214900 0.121024
828.452200 0.033881
828.689600 0.124587
828.927000 0.069917
829.164300 0.026140
829.401700 0.098257
829.639100 0.079160
829.876500 0.042808
830.113900 0.069943
830.351300 0.103232
830.588700 0.082249
830.826100 0.059843
831.063600 0.021802
831.301000 0.057240
831.538500 -0.004387
831.775900 0.051988
832.013400 0.084543
832.250900 0.113464
832.488400 0.109985
832.725900 0.089803
832.963400 0.201440
833.200900 0.075451
833.438400 0.016827
833.675900 0.244654
833.913500 0.085586
834.151000 0.101399
834.388600 0.082816
834.626100 0.086713
834.863700 0.076399
835.101300 0.047131
835.338900 0.093464
835.576500 0.089676
835.814100 0.026694
836.051700 0.001328
836.289300 0.108169
836.526900 -0.027564
836.764600 0.091773
837.002200 0.093979
837.239900 0.059452
837.477500 0.210612
837.715200 -0.072094
837.952900 0.138123
838.190600 0.100160
838.428300 0.071125
838.666000 0.381826
838.903700 -0.015956
839.141400 0.105959
839.379100 -0.022061
839.616900 0.040415
839.854600 0.010883
840.092400 0.054260
840.330200 0.242097
840.567900 0.049505
840.805700 0.197555
841.043500 0.165926
841.281300 0.054629
841.519100 0.027167
841.756900 0.137915
841.994700 0.003024
842.232600 0.101565
842.470400 0.055606
842.708200 -0.048083
842.946100 0.032597
843.184000 0.034762
843.421800 0.173080
843.659700 0.086094
843.897600 -0.044589
844.135500 0.117379
844.373400 0.109622
844.611300 0.039987
844.849200 0.042607
845.087200 0.115359
845.325100 0.027885
845.563100 0.217334
845.801000 0.132059
846.039000 0.160036
846.277000 0.037417
846.514900 -0.038657
846.752900 -0.133756
846.990900 -0.089270
847.228900 0.062222
847.466900 0.266049
847.705000 -0.004652
847.943000 0.041920
848.181000 0.142099
848.419100 -0.020462
848.657100 0.117350
848.895200 0.089421
849.133300 0.106953
849.371300 0.051133
849.609400 0.110019
849.847500 0.084265
850.085600 0.049677
850.323700 0.063479
850.561900 -0.045995
850.800000 0.185780
851.038100 0.053069
851.276300 -0.099649
851.514400 -0.056005
851.752600 0.106108
851.990800 0.032356
852.228900 -0.008237
852.467100 0.115253
852.705300 -0.031270
852.943500 0.068312
853.181700 0.083014
853.420000 0.029049
853.658200 0.063700
853.896400 0.119233
854.134700 0.038318
854.372900 0.061228
854.611200 0.109987
854.849500 0.124792
855.087700 0.074320
855.326000 0.134808
855.564300 0.133095
855.802600 0.098506
856.040900 0.080645
856.279200 0.139258
856.517600 0.100640
856.755900 0.110743
856.994200 0.052446
857.232600 0.068431
857.471000 0.076695
857.709300 0.059921
857.947700 -0.021388
858.186100 0.148196
858.424500 0.074103
858.662900 0.118342
858.901300 0.088650
859.139700 0.114660
859.378100 0.051511
859.616600 0.071824
859.855000 0.142099
860.093500 0.172917
860.331900 0.159617
860.570400 0.075928
860.808900 0.072600
861.047300 0.091513
861.285800 0.100751
861.524300 0.127513
861.762800 0.104047
862.001300 0.106653
862.239900 0.189197
862.478400 -0.047186
862.716900 0.129658
862.955500 0.100551
863.194000 0.041629
863.432600 0.118206
863.671200 0.116501
863.909800 0.101458
864.148300 -0.029347
864.386900 0.043606
864.625500 0.101084
864.864200 -0.025740
865.102800 -0.024966
865.341400 0.029980
865.580000 0.021193
865.818700 -0.032903
866.057300 -0.005605
866.296000 0.022941
866.534700 0.102926
866.773300 0.026983
867.012000 0.048735
867.250700 0.029598
867.489400 0.020881
867.728100 0.022581
867.966900 0.035816
868.205600 -0.022668
868.444300 0.085643
868.683100 0.083255
868.921800 -0.044004
869.160600 -0.009957
869.399300 0.063019
869.638100 0.139368
869.876900 0.140281
870.115700 0.010035
870.354500 0.088856
870.593300 0.214698
870.832100 0.172817
871.070900 0.050885
871.309700 0.067827
871.548600 0.159476
871.787400 0.098652
872.026300 0.061591
872.265100 -0.041703
872.504000 0.077525
872.742900 0.065875
872.981800 0.035531
873.220700 0.172379
873.459600 0.133174
873.698500 0.062667
873.937400 0.113128
874.176300 -0.002302
874.415300 0.286995
874.654200 0.112402
874.893200 0.021105
875.132100 -0.017007
875.371100 0.119069
875.610100 0.063604
875.849100 0.130054
876.088000 0.070810
876.327000 0.004804
876.566100 0.047729
876.805100 0.152839
877.044100 0.058976
877.283100 0.028923
877.522200 -0.046286
877.761200 0.037705
878.000300 0.147225
878.239300 0.164588
878.478400 0.001646
878.717500 0.133861
878.956600 0.086971
879.195700 0.101623
879.434800 -0.017928
879.673900 0.003288
879.913000 0.062476
880.152100 0.084428
880.391300 0.104904
880.630400 0.112626
880.869600 0.138856
881.108700 -0.057604
881.347900 0.062233
881.587100 0.105067
881.826200 0.089553
882.065400 0.181228
882.304600 0.094386
882.543800 0.028935
882.783100 0.179493
883.022300 0.064581
883.261500 0.022201
883.500700 0.090444
883.740000 -0.045978
883.979200 0.103831
884.218500 0.197197
884.457800 0.066579
884.697100 0.144510
884.936300 0.149426
885.175600 0.167686
885.414900 -0.004305
885.654200 0.070189
885.893600 -0.046008
886.132900 0.156682
886.372200 0.259795
886.611600 -0.032474
886.850900 0.173201
887.090300 0.046008
887.329600 0.117694
887.569000 0.085258
887.808400 -0.078999
888.047800 0.074984
888.287200 -0.084869
888.526600 0.128922
888.766000 -0.079342
889.005400 0.127814
889.244800 0.060589
889.484300 0.009736
889.723700 0.088314
889.963200 0.122183
890.202600 0.108741
890.442100 0.047891
890.681600 -0.007159
890.921100 -0.012874
891.160600 0.166098
891.400100 0.133750
891.639600 0.208572
891.879100 0.124722
892.118600 -0.000440
892.358100 0.084780
892.597700 0.199602
892.837200 0.137290
893.076800 0.177333
893.316300 0.014434
893.555900 0.068365
893.795500 0.264821
894.035100 -0.064758
894.274700 0.274717
894.514300 0.244172
894.753900 0.130867
894.993500 0.097703
895.233100 0.018773
895.472700 0.023430
895.712400 0.121154
895.952000 0.186050
896.191700 -0.064251
896.431400 0.061701
896.671000 0.252336
896.910700 -0.005355
897.150400 0.104596
897.390100 -0.011767
897.629800 0.010788
897.869500 -0.024487
898.109200 0.382109
898.348900 0.040704
898.588700 0.151394
898.828400 0.166849
899.068200 0.244665
899.307900 0.058900
899.547700 -0.029283
899.787500 0.065335
900.027200 -0.050193
900.267000 0.106876
900.506800 0.189251
900.746600 0.051791
900.986400 -0.011631
901.226300 -0.003239
901.466100 -0.030695
901.705900 0.157840
901.945800 0.101214
902.185600 0.100922
902.425500 0.017954
902.665400 -0.000528
902.905200 0.109467
903.145100 0.037729
903.385000 0.147042
903.624900 -0.013849
903.864800 0.153454
904.104700 0.124047
904.344600 0.159562
904.584600 0.045470
904.824500 -0.053766
905.064400 0.189351
905.304400 0.010470
905.544400 0.068509
905.784300 0.073879
906.024300 -0.007837
906.264300 0.175405
906.504300 0.141080
906.744300 0.027436
906.984300 0.101552
907.224300 0.010215
907.464300 0.116635
907.704300 0.089567
907.944400 -0.055179
908.184400 0.063663
908.424500 -0.066299
908.664500 -0.158205
908.904600 0.136876
909.144700 0.124903
909.384700 0.132245
909.624800 -0.191927
909.864900 0.259733
910.105000 -0.026009
910.345200 -0.117562
910.585300 -0.033060
910.825400 0.119172
911.065500 0.000445
911.305700 0.067057
911.545800 -0.048712
911.786000 0.067029
912.026200 0.087553
912.266300 0.260736
912.506500 -0.024116
912.746700 0.136809
912.986900 0.020999
913.227100 -0.097189
913.467300 -0.034504
913.707500 0.211959
913.947800 0.167409
914.188000 0.067375
914.428300 0.226121
914.668500 0.009534
914.908800 -0.024686
915.149000 -0.032212
915.389300 0.044907
915.629600 0.155499
915.869900 0.186827
916.110200 -0.061372
916.350500 -0.100160
916.590800 0.375749
916.831100 -0.023855
917.071400 0.011329
917.311800 0.019659
917.552100 0.089648
917.792500 0.062791
918.032800 0.161291
918.273200 0.110019
918.513600 0.092775
918.753900 0.297109
918.994300 0.096395
919.234700 0.222755
919.475100 0.051088
919.715500 0.071016
919.956000 -0.036704
920.196400 -0.117688
920.436800 -0.077641
920.677300 0.249671
920.917700 0.043779
921.158200 0.018135
921.398600 0.029930
921.639100 0.036527
921.879600 -0.124988
922.120100 -0.110585
922.360600 0.046815
922.601100 0.193102
922.841600 0.135619
923.082100 0.215590
923.322600 -0.122758
923.563100 -0.173604
923.803700 0.032766
924.044200 -0.023122
924.284800 0.215616
924.525400 0.031065
924.765900 -0.027462
925.006500 0.007916
925.247100 0.028601
925.487700 -0.085974
925.728300 0.300135
925.968900 0.173017
926.209500 0.008994
926.450100 -0.091613
926.690800 0.151422
926.931400 -0.276241
927.172000 -0.088616
927.412700 0.024510
927.653300 0.107205
927.894000 -0.027137
928.134700 0.180007
928.375400 -0.125775
928.616100 0.209604
928.856800 0.239788
929.097500 -0.073649
929.338200 -0.164579
929.578900 -0.038524
929.819600 0.158044
930.060400 0.047787
930.301100 -0.175726
930.541900 0.033221
930.782600 0.191011
931.023400 0.046620
931.264200 0.274836
931.504900 0.277270
931.745700 0.159827
931.986500 0.152842
932.227300 0.116085
932.468100 0.415728
932.708900 -0.125867
932.949800 0.040848
933.190600 0.129405
933.431400 0.174703
933.672300 -0.076940
933.913100 0.117564
934.154000 0.278970
934.394900 0.174788
934.635800 0.008238
934.876600 -0.052539
935.117500 0.123315
935.358400 0.050362
935.599300 -0.006673
935.840300 -0.143141
936.081200 0.235685
936.322100 -0.217669
936.563000 0.461931
936.804000 0.258504
937.044900 -0.359094
937.285900 0.502155
937.526900 0.190440
937.767800 0.218460
938.008800 -0.126280
938.249800 -0.101891
938.490800 0.424340
938.731800 0.026950
938.972800 0.441722
939.213800 0.045419
939.454900 0.081419
939.695900 -0.189722
939.936900 0.065714
940.178000 -0.012305
940.419000 0.022310
940.660100 0.041707
940.901200 0.182987
941.142200 -0.436240
941.383300 0.190313
941.624400 0.041699
941.865500 0.450892
942.106600 -0.184399
942.347700 -0.290869
942.588900 1.426778
942.830000 -0.227703
943.071100 -0.180612
943.312300 0.106512
943.553400 1.220762
943.794600 0.010724
944.035700 0.354516
944.276900 0.132802
944.518100 -0.455563
944.759300 -0.114729
945.000500 -0.222236
945.241700 0.621454
945.482900 0.284211
945.724100 0.255945
945.965300 0.386061
946.206600 -0.102712
946.447800 1.400576
946.689100 0.263656
946.930300 -0.815639
947.171600 -0.154584
947.412800 -0.126545
947.654100 -0.043185
947.895400 3.272538
948.136700 0.229240
948.378000 0.177452
948.619300 0.309017
948.860600 0.184303
949.101900 -0.164356
949.343300 0.432636
949.584600 0.200570
949.825900 -0.249280
950.067300 0.101402
950.308600 -0.120323
950.550000 0.806131
950.791400 -0.287706
951.032700 -0.456252
951.274100 0.765981
951.515500 0.590118
951.756900 3.161967
951.998300 0.141557
952.239800 -0.006102
952.481200 -0.409059
952.722600 -0.251996
952.964000 -0.073493
953.205500 -0.186867
953.446900 -0.253721
953.688400 0.028934
953.929900 0.320802
954.171300 -0.639081
954.412800 -0.272082
954.654300 0.782297
954.895800 -0.383711
955.137300 -0.549060
955.378800 -0.082302
955.620300 -0.052376
955.861800 0.095365
956.103400 0.236401
956.344900 -0.140957
956.586500 -0.170574
956.828000 -0.035847
957.069600 0.161275
957.311100 -0.469674
957.552700 0.616088
957.794300 -0.135899
958.035900 0.211717
958.277500 -0.432632
958.519100 -0.167556
958.760700 -0.087098
959.002300 -0.601046
959.243900 0.910289
959.485600 -0.212743
959.727200 0.210699
959.968800 -0.462922
960.210500 -0.363748
960.452200 0.396688
960.693800 -0.454753
960.935500 -3.096215
961.177200 -0.186603
961.418900 0.209168
961.660600 0.009554
961.902300 2.572581
962.144000 -0.342758
962.385700 -0.457508
962.627400 0.232753
962.869200 -0.425243
963.110900 -0.484941
963.352700 0.554549
963.594400 -0.038933
963.836200 0.714008
964.077900 -0.043185
964.319700 0.438248
964.561500 3.252853
964.803300 0.160612
965.045100 1.283203
965.286900 2.791691
965.528700 -0.247025
965.770500 -0.088978
966.012300 -0.518592
966.254200 -0.232795
966.496000 -0.575098
966.737900 0.089223
966.979700 0.113568
967.221600 2.833784
967.463400 0.306966
967.705300 0.619534
967.947200 0.231350
968.189100 -0.333932
968.431000 0.440228
968.672900 -0.050160
968.914800 -0.519544
969.156700 -0.437340
969.398700 -0.248048
969.640600 -0.528274
969.882500 -0.146425
970.124500 -0.242378
970.366400 0.581126
970.608400 3.042969
970.850400 -0.643991
971.092300 -0.107402
971.334300 -0.406209
971.576300 -0.143149
971.818300 0.193321
972.060300 -0.054645
972.302300 0.150577
972.544300 -0.514280
972.786400 0.143335
973.028400 -0.037204
973.270400 -0.010131
973.512500 0.188110
973.754500 3.218010
973.996600 0.489607
974.238700 -0.225931
974.480700 -0.211882
974.722800 0.155655
974.964900 -0.340291
975.207000 0.021136
975.449100 -0.786048
975.691200 0.068248
975.933300 -0.187694
976.175500 -2.978637
976.417600 0.277366
976.659700 -0.250460
976.901900 -0.271760
977.144000 0.047993
977.386200 -0.477382
977.628300 1.067204
977.870500 0.106228
978.112700 -0.387056
978.354900 0.404906
978.597100 0.202105
978.839300 0.018460
979.081500 0.390183
979.323700 -3.288473
979.565900 -0.595654
979.808200 0.476415
980.050400 0.152990
980.292600 0.070080
980.534900 0.254683
980.777100 -0.425272
981.019400 0.027722
981.261700 3.201124
981.504000 0.575102
981.746200 1.845098
981.988500 0.537587
982.230800 0.063562
982.473100 0.348090
982.715500 0.017981
982.957800 0.513783
983.200100 0.021389
983.442400 2.610660
983.684800 0.150006
983.927100 0.262032
984.169500 0.277856
984.411800 0.788603
984.654200 -0.343039
984.896600 0.094226
985.139000 -1.951966
985.381400 0.006713
985.623800 -0.060972
985.866200 3.062958
986.108600 -2.689309
986.351000 0.232573
986.593400 -0.297401
986.835800 0.473385
987.078300 -0.025425
987.320700 0.312128
987.563200 -0.680772
987.805600 -0.688488
988.048100 3.189209
988.290600 -0.357180
988.533100 -2.788875
988.775600 -0.164116
989.018000 0.297712
989.260500 -0.225182
989.503100 -2.285557
989.745600 2.123852
989.988100 -2.870404
990.230600 0.109045
990.473200 2.935507
990.715700 0.550108
990.958200 -0.565098
991.200800 -0.636401
991.443400 0.000000
991.685900 -0.523386
991.928500 -2.741939
992.171100 -0.599792
992.413700 0.147170
992.656300 -0.008594
992.898900 0.828861
993.141500 0.370887
993.384100 1.077120
993.626700 -0.299101
993.869400 -0.483607
994.112000 -0.132340
994.354700 3.165244
994.597300 0.288256
994.840000 -2.968950
995.082600 -0.637596
995.325300 -1.018960
995.568000 -0.285466
995.810700 -0.690461
996.053400 0.237898
996.296100 0.496955
996.538800 -0.206229
996.781500 0.367684
997.024200 2.049218
997.267000 0.506133
997.509700 -0.052125
997.752400 -0.464866
997.995200 -0.137213
998.237900 -0.087307
998.480700 -0.142600
998.723500 -2.707570
998.966200 -0.220212
999.209000 -2.037426
999.451800 -0.337939
999.694600 0.108735
999.937400 2.318063
1000.180200 0.354575
1000.423000 -0.009186
1000.665900 -0.450177
1000.908700 -0.684788
1001.151500 2.727541
1001.394400 -0.425187
1001.637200 0.336518
1001.880100 -1.871184
1002.123000 -0.192915
1002.365800 -0.654423
1002.608700 -0.869952
1002.851600 -0.197306
1003.094500 0.268794
1003.337400 2.217484
1003.580300 -2.959041
1003.823200 -0.807483
1004.066100 -0.069818
1004.309100 -0.229570
1004.552000 3.008600
1004.794900 -0.316185
1005.037900 0.150731
1005.280800 0.002723
1005.523800 -0.027833
1005.766700 0.498346
1006.009700 -0.222005
1006.252700 0.000000
1006.495700 -0.560918
1006.738700 -2.444045
1006.981700 -0.192905
1007.224700 -0.523168
1007.467700 -1.056980
1007.710700 0.496717
1007.953800 -0.048109
1008.196800 0.557420
1008.439800 0.091884
1008.682900 2.691965
1008.925900 3.097604
1009.169000 -0.196758
1009.412100 -2.773786
1009.655100 -1.337361
1009.898200 0.012012
1010.141300 -0.670492
1010.384400 0.043888
1010.627500 -0.267337
1010.870600 0.084257
1011.113700 0.192044
1011.356800 -0.434105
1011.600000 -1.347455
1011.843100 -0.366642
1012.086300 -2.037426
1012.329400 -0.090412
1012.572600 -2.938520
1012.815700 0.114587
1013.058900 -3.170262
1013.302100 0.593958
1013.545200 0.291629
1013.788400 0.075205
1014.031600 -2.948902
1014.274800 0.665249
1014.518000 1.217484
1014.761300 0.283220
1015.004500 -2.916980
1015.247700 -0.470429
1015.490900 -2.475671
1015.734200 3.239800
1015.977400 -0.498653
1016.220700 0.000000
1016.464000 -0.125547
1016.707200 -0.825447
1016.950500 2.378398
1017.193800 2.907949
1017.437100 -0.295040
1017.680400 -0.273928
1017.923700 0.500220
1018.167000 0.698970
1018.410300 -0.429899
1018.653600 2.913814
1018.896900 0.577558
1019.140300 0.172862
1019.383600 1.000000
1019.627000 -0.237514
1019.870300 -0.223926
1020.113700 0.600356
1020.357100 -0.074147
1020.600400 2.853698
1020.843800 0.009271
1021.087200 0.359246
1021.330600 -2.649335
1021.574000 0.626732
1021.817400 -2.669317
1022.060800 -2.505150
1022.304200 0.000000
1022.547700 0.343294
1022.791100 2.432969
1023.034500 0.070974
