# Wavelength	Absorbance
197.780200 -0.006839
197.984200 -0.275891
198.188200 -0.046107
198.392200 0.007284
198.596300 2.935507
198.800300 2.318063
199.004400 0.435681
199.208500 -0.216857
199.412600 -0.463349
199.616800 0.039473
199.820900 2.465383
200.025100 0.132092
200.229200 0.213473
200.433400 0.626583
200.637600 0.015910
200.841800 0.053814
201.046100 3.008600
201.250300 3.142702
201.454600 -0.082736
201.658900 3.051153
201.863100 0.023017
202.067400 -0.248603
202.271800 -0.011398
202.476100 -0.388581
202.680500 -0.124454
202.884800 0.923553
203.089200 0.692206
203.293600 -0.374181
203.498000 -0.038539
203.702400 2.336460
203.906900 -0.523832
204.111300 0.000000
204.315800 -0.093160
204.520300 0.270566
204.724800 0.075828
204.929300 -0.854221
205.133800 0.050410
205.338400 2.820201
205.543000 1.041100
205.747500 -0.063710
205.952100 0.227025
206.156700 0.093614
206.361400 0.000000
206.566000 -0.154902
206.770600 0.685329
206.975300 2.294466
207.180000 -2.245513
207.384700 -0.233803
207.589400 -2.693727
207.794100 2.480007
207.998900 -0.123641
208.203600 0.374862
208.408400 2.970812
208.613200 0.368415
208.818000 -0.722991
209.022800 -0.096910
209.227600 -0.179799
209.432500 2.907949
209.637300 0.334515
209.842200 -0.004387
210.047100 -0.086711
210.252000 2.053078
210.456900 0.357195
210.661800 3.055378
210.866800 0.515997
211.071800 0.762064
211.276700 -0.033066
211.481700 -0.070462
211.686700 0.019673
211.891800 -0.519993
212.096800 0.771593
212.301800 1.936179
212.506900 0.119172
212.712000 0.057187
212.917100 0.637510
213.122200 -0.160246
213.327300 0.802591
213.532500 -2.711807
213.737600 2.985426
213.942800 -1.449919
214.148000 -0.480826
214.353200 -2.835056
214.558400 0.082848
214.763600 1.557719
214.968900 2.896526
215.174100 3.104487
215.379400 -2.941014
215.584700 0.040097
215.790000 -0.360955
215.995300 -0.065160
216.200700 2.806180
216.406000 -0.028437
216.611400 -0.342729
216.816800 0.415483
217.022200 0.913606
217.227600 0.392633
217.433000 -0.622708
217.638400 3.047275
217.843900 -0.439175
218.049400 0.000000
218.254800 0.303341
218.460300 3.008600
218.665900 0.205308
218.871400 0.088079
219.076900 -0.009661
219.282500 2.960946
219.488100 0.186338
219.693600 -0.157111
219.899200 0.592780
220.104900 3.055378
220.310500 -0.634029
220.516100 0.000000
220.721800 0.360273
220.927500 0.506479
221.133200 0.124576
221.338900 0.080489
221.544600 0.172094
221.750300 3.183555
221.956100 -0.467520
222.161800 -0.274327
222.367600 -0.006317
222.573400 -0.191603
222.779200 -2.951823
222.985000 -3.270679
223.190900 0.255523
223.396700 -0.446638
223.602600 -0.419467
223.808500 2.736397
224.014400 2.853698
224.220300 2.935507
224.426200 0.468911
224.632200 -0.079317
224.838100 2.890421
225.044100 -0.124214
225.250100 -0.800794
225.456100 -0.021649
225.662100 -0.358325
225.868100 2.127105
226.074200 0.019673
226.280200 0.000000
226.486300 2.846955
226.692400 0.000000
226.898500 3.101403
227.104600 -0.748896
227.310700 0.160111
227.516900 2.833784
227.723000 -0.361881
227.929200 3.252853
228.135400 0.213880
228.341600 -0.386812
228.547800 0.032680
228.754100 0.810767
228.960300 -0.627808
229.166600 -2.250420
229.372900 0.196141
229.579100 0.626142
229.785500 -0.234843
229.991800 -2.074503
230.198100 2.682145
230.404500 1.963788
230.610800 3.003891
230.817200 -2.729165
231.023600 -0.127447
231.230000 0.714564
231.436400 0.291352
231.642900 2.718502
231.849300 0.157213
232.055800 -0.685127
232.262300 0.898106
232.468800 -0.492745
232.675300 -0.119946
232.881800 -0.607482
233.088400 1.037505
233.294900 -0.062556
233.501500 -0.115865
233.708100 0.000000
233.914700 2.710963
234.121300 -3.043362
234.327900 -0.164313
234.534600 -0.011582
234.741300 0.145781
234.947900 2.736397
235.154600 0.434460
235.361300 3.122544
235.568000 0.124939
235.774800 0.469633
235.981500 -0.603248
236.188300 -3.026533
236.395100 2.999565
236.601800 0.000000
236.808700 -0.440282
237.015500 0.478548
237.222300 -0.341925
237.429200 3.265290
237.636000 -0.186457
237.842900 -0.567043
238.049800 0.083498
238.256700 -0.220108
238.463600 0.408195
238.670600 2.970812
238.877500 0.231527
239.084500 -2.941014
239.291500 3.226342
239.498500 -0.343319
239.705500 -0.102403
239.912500 -0.866709
240.119500 -0.984665
240.326600 -0.981395
240.533700 0.000000
240.740700 0.370756
240.947800 0.008973
241.154900 3.059185
241.362100 -0.044673
241.569200 -0.533084
241.776400 -0.091480
241.983500 0.815421
242.190700 0.617994
242.397900 -2.897077
242.605100 -0.323118
242.812400 0.205694
243.019600 -0.151458
243.226900 2.710117
243.434100 -0.408315
243.641400 -0.331418
243.848700 -0.227213
244.056000 -2.693727
244.263400 -0.422334
244.470700 0.630999
244.678100 1.374856
244.885400 0.036984
245.092800 0.339722
245.300200 2.357935
245.507600 0.741176
245.715100 3.034628
245.922500 -0.033817
246.130000 -0.246672
246.337500 0.322618
246.544900 2.396199
246.752400 1.655289
246.960000 3.165244
247.167500 0.155431
247.375000 0.000000
247.582600 -0.273356
247.790200 -0.829763
247.997800 0.263788
248.205400 2.308683
248.413000 0.160932
248.620600 2.727541
248.828300 0.068543
249.035900 0.417816
249.243600 0.185287
249.451300 1.425063
249.659000 0.284082
249.866700 3.168203
250.074500 0.404829
250.282200 -0.039936
250.490000 -0.083567
250.697800 -0.393094
250.905600 -0.850204
251.113400 -0.235612
251.321200 1.259275
251.529000 2.008600
251.736900 -0.121535
251.944700 -0.147780
252.152600 0.724923
252.360500 2.710117
252.568400 -0.083097
252.776300 -0.141136
252.984300 -0.363758
253.192200 2.985426
253.400200 -0.455048
253.608200 -0.390900
253.816200 1.031976
254.024200 0.197878
254.232200 -0.711158
254.440200 0.000000
254.648300 -0.383522
254.856400 2.701568
255.064400 -0.165040
255.272500 0.156590
255.480600 1.047924
255.688800 -2.908485
255.896900 -0.004834
256.105100 3.284882
256.313200 -0.481954
256.521400 0.445352
256.729600 3.025715
256.937800 0.659551
257.146000 -0.107023
257.354300 -3.177825
257.562500 0.084864
257.770800 0.000000
257.979100 0.777045
258.187400 -0.201245
258.395700 -0.182976
258.604000 3.034628
258.812400 0.407195
259.020700 0.248698
259.229100 -0.151494
259.437500 -0.033135
259.645900 0.130568
259.854300 0.339446
260.062700 1.156998
260.271100 2.621176
260.479600 0.484820
260.688100 0.023217
260.896500 0.367492
261.105000 2.089905
261.313500 -0.544365
261.522100 0.099340
261.730600 0.815627
261.939200 0.112736
262.147700 0.478011
262.356300 0.051348
262.564900 -0.653213
262.773500 2.907411
262.982200 0.780081
263.190800 0.000000
263.399500 0.047560
263.608100 1.181685
263.816800 0.469962
264.025500 -0.297528
264.234200 -0.885000
264.442900 -0.640649
264.651700 0.645818
264.860400 -0.256843
265.069200 0.069787
265.278000 -0.036194
265.486800 -0.207948
265.695600 -0.511646
265.904400 -0.075682
266.113300 2.599883
266.322100 0.388472
266.531000 2.294466
266.739900 -0.244610
266.948800 -0.108964
267.157700 -0.096570
267.366600 0.182058
267.575500 0.105614
267.784500 0.581745
267.993500 0.576456
268.202400 0.458928
268.411400 -0.118276
268.620500 2.761176
268.829500 0.064167
269.038500 2.123852
269.247600 0.736397
269.456600 1.054358
269.665700 0.013849
269.874800 0.938928
270.083900 0.203349
270.293100 0.000000
270.502200 -0.377328
270.711400 2.127105
270.920500 2.833784
271.129700 2.985426
271.338900 0.174596
271.548100 0.273664
271.757300 -0.259617
271.966600 0.438635
272.175800 0.978756
272.385100 1.075675
272.594400 2.970812
272.803700 0.069780
273.013000 -0.209685
273.222300 -0.005243
273.431600 0.268167
273.641000 3.209783
273.850400 -0.403601
274.059700 0.037476
274.269100 0.076296
274.478500 0.204996
274.688000 0.322618
274.897400 0.073896
275.106900 -1.390301
275.316300 3.055378
275.525800 0.181710
275.735300 -2.482874
275.944800 0.158814
276.154300 -0.640870
276.363900 -0.092332
276.573400 -0.186427
276.783000 0.057187
276.992600 -0.083484
277.202200 0.106261
277.411800 0.245288
277.621400 -0.324383
277.831000 -0.000661
278.040700 1.469966
278.250300 2.820201
278.460000 -0.107855
278.669700 2.980458
278.879400 -0.557813
279.089100 2.691965
279.298900 -0.182340
279.508600 -0.026209
279.718400 -0.176555
279.928100 -2.539076
280.137900 3.215373
280.347700 -0.202599
280.557600 2.960946
280.767400 3.039017
280.977200 -0.412951
281.187100 -3.229426
281.397000 0.029963
281.606900 0.000000
281.816800 0.019069
282.026700 2.357935
282.236600 0.061683
282.446600 2.924279
282.656500 -2.930440
282.866500 2.791691
283.076500 -0.407399
283.286500 0.460139
283.496500 0.731747
283.706500 -0.183199
283.916600 0.231810
284.126600 0.845098
284.336700 0.623719
284.546800 -0.124096
284.756900 -0.224705
284.967000 2.896526
285.177100 0.408492
285.387300 0.000000
285.597400 3.017033
285.807600 2.127105
286.017800 -0.031680
286.228000 -2.835056
286.438200 0.536957
286.648400 1.232946
286.858700 0.676458
287.068900 0.277549
287.279200 -0.508113
287.489500 -0.278754
287.699800 0.352107
287.910100 -0.512043
288.120400 0.225761
288.330800 2.220108
288.541100 3.352954
288.751500 2.217484
288.961900 2.813581
289.172300 -2.990783
289.382700 3.074816
289.593100 -0.412642
289.803500 0.000000
290.014000 0.145402
290.224500 0.424707
290.434900 -2.418301
290.645400 0.038048
290.855900 0.945642
291.066500 1.089223
291.277000 1.036723
291.487500 2.768638
291.698100 2.768638
291.908700 -0.570029
292.119300 -0.087254
292.329900 3.042969
292.540500 -0.000811
292.751100 0.036567
292.961800 -2.930440
293.172400 -0.000293
293.383100 -2.674861
293.593800 -0.048605
293.804500 -0.717442
294.015200 0.060857
294.226000 -3.009026
294.436700 0.070176
294.647500 0.172560
294.858200 0.312889
295.069000 -0.042573
295.279800 -0.622870
295.490600 -3.043362
295.701500 3.059185
295.912300 -0.124580
296.123200 3.247728
296.334000 0.154665
296.544900 0.587644
296.755800 -0.044869
296.966700 -0.225795
297.177700 -0.025779
297.388600 -0.016820
297.599500 0.019093
297.810500 0.030316
298.021500 0.420054
298.232500 2.201397
298.443500 -1.087231
298.654500 -0.093142
298.865600 3.125806
299.076600 -0.590772
299.287700 -2.674861
299.498800 0.249301
299.709900 -0.217253
299.921000 0.005091
300.132100 0.908286
300.343200 0.448932
300.554400 0.134900
300.765500 2.853698
300.976700 -2.897077
301.187900 -0.194584
301.399100 2.813581
301.610300 0.999034
301.821500 1.507406
302.032800 -0.097183
302.244100 3.017451
302.455300 -0.086235
302.666600 -0.197453
302.877900 0.295902
303.089200 -0.403993
303.300600 3.209783
303.511900 -0.010554
303.723300 0.472493
303.934600 -0.067028
304.146000 -2.154902
304.357400 0.955848
304.568800 0.464938
304.780300 0.463124
304.991700 -0.022241
305.203100 -1.083227
305.414600 0.609550
305.626100 2.294466
305.837600 0.281523
306.049100 -0.030884
306.260600 -0.360804
306.472200 -0.695502
306.683700 -0.314826
306.895300 -0.406178
307.106900 1.101391
307.318400 0.495552
307.530100 0.490383
307.741700 0.354394
307.953300 0.206105
308.165000 -3.097951
308.376600 0.004503
308.588300 2.288050
308.800000 -0.221286
309.011700 0.329747
309.223400 1.418236
309.435100 2.450249
309.646900 0.421805
309.858600 -0.035615
310.070400 0.454184
310.282200 -1.587871
310.494000 0.452074
310.705800 1.037869
310.917600 -0.064995
311.129500 0.541253
311.341300 0.198495
311.553200 3.180413
311.765100 0.304193
311.977000 0.133677
312.188900 -0.017336
312.400800 0.268672
312.612700 -0.242676
312.824700 3.292034
313.036600 0.465238
313.248600 3.332034
313.460600 0.091080
313.672600 1.218176
313.884600 0.042998
314.096700 -0.055255
314.308700 0.286191
314.520800 0.653042
314.732800 0.595919
314.944900 0.155345
315.157000 0.391120
315.369200 3.082785
315.581300 0.030861
315.793400 -0.530627
316.005600 0.013356
316.217700 0.206307
316.429900 3.525174
316.642100 0.716416
316.854300 0.025957
317.066600 3.463445
317.278800 -0.078405
317.491100 0.240466
317.703300 0.993837
317.915600 0.051180
318.127900 1.738190
318.340200 1.129121
318.552500 0.283533
318.764900 3.139249
318.977200 0.743865
319.189600 -0.188341
319.401900 0.579135
319.614300 3.245019
319.826700 0.174421
320.039200 3.358886
320.251600 3.303412
320.464000 0.152421
320.676500 0.197475
320.889000 -0.341475
321.101400 0.451812
321.313900 0.697485
321.526500 1.098498
321.739000 0.230139
321.951500 0.511007
322.164100 0.438853
322.376600 0.683020
322.589200 3.362859
322.801800 0.194548
323.014400 0.389232
323.227000 0.094090
323.439700 0.506994
323.652300 0.331413
323.865000 0.645584
324.077700 0.923631
324.290400 0.132443
324.503100 0.517643
324.715800 0.286885
324.928500 0.235926
325.141200 3.384174
325.354000 0.430866
325.566800 0.104768
325.779600 0.590975
325.992400 3.314710
326.205200 0.499214
326.418000 3.474362
326.630800 1.873924
326.843700 0.881824
327.056600 0.672141
327.269400 0.497372
327.482300 3.531990
327.695200 1.678393
327.908200 0.448453
328.121100 0.154858
328.334000 3.554126
328.547000 0.717087
328.760000 0.412089
328.973000 3.578983
329.186000 0.802383
329.399000 0.597726
329.612000 0.508304
329.825100 0.773346
330.038100 1.284114
330.251200 0.482261
330.464300 0.706475
330.677400 0.705044
330.890500 0.866331
331.103600 1.669136
331.316700 0.558825
331.529900 0.896370
331.743100 3.583879
331.956200 0.670557
332.169400 0.551303
332.382600 0.231065
332.595900 3.740600
332.809100 0.414995
333.022300 1.143820
333.235600 0.535517
333.448900 0.495968
333.662200 0.490125
333.875500 0.657305
334.088800 0.789086
334.302100 0.879584
334.515400 3.647089
334.728800 0.274701
334.942200 0.741595
335.155500 0.818313
335.368900 0.658913
335.582300 0.605849
335.795800 0.571798
336.009200 1.613489
336.222700 0.575626
336.436100 0.642114
336.649600 1.739045
336.863100 0.289733
337.076600 1.818552
337.290100 1.128604
337.503600 3.672098
337.717200 0.885969
337.930700 0.722716
338.144300 0.754504
338.357900 0.927125
338.571500 1.102885
338.785100 3.703205
338.998700 0.380464
339.212400 1.069457
339.426000 1.018417
339.639700 3.667266
339.853300 1.708689
340.067000 3.741388
340.280700 0.653324
340.494500 0.706930
340.708200 0.793720
340.921900 1.454221
341.135700 0.389743
341.349500 3.731266
341.563300 3.781827
341.777100 1.335220
341.990900 0.575652
342.204700 1.038616
342.418500 0.697505
342.632400 1.195983
342.846300 1.093308
343.060100 3.693023
343.274000 0.916551
343.487900 3.871748
343.701900 0.444162
343.915800 1.204190
344.129700 1.012675
344.343700 3.778006
344.557700 2.932586
344.771700 1.297811
344.985700 0.781282
345.199700 1.012971
345.413700 0.957091
345.627700 0.707785
345.841800 0.580709
346.055900 2.146554
346.269900 0.756375
346.484000 1.204889
346.698100 2.118116
346.912300 0.850340
347.126400 0.896986
347.340600 3.899164
347.554700 0.723998
347.768900 0.708497
347.983100 1.267197
348.197300 0.969645
348.411500 3.880871
348.625700 0.981399
348.840000 1.333949
349.054200 3.926085
349.268500 3.952889
349.482800 3.888011
349.697100 0.666121
349.911400 3.877832
350.125700 0.819960
350.340000 1.486082
350.554400 0.914077
350.768700 3.912806
350.983100 0.609683
351.197500 3.889246
351.411900 1.734017
351.626300 3.954918
351.840700 0.527028
352.055200 0.896937
352.269600 0.800204
352.484100 3.950851
352.698600 3.990072
352.913100 3.896857
353.127600 3.993348
353.342100 3.948266
353.556600 1.013347
353.771200 1.066520
353.985800 3.943643
354.200300 1.022413
354.414900 0.715333
354.629500 1.213416
354.844100 1.146084
355.058800 1.260071
355.273400 0.880758
355.488100 1.048124
355.702700 1.071847
355.917400 0.878978
356.132100 1.142207
356.346800 0.584581
356.561500 0.871145
356.776300 3.974327
356.991000 1.118530
357.205800 3.987264
357.420600 2.280632
357.635300 1.851711
357.850100 1.197104
358.065000 0.814110
358.279800 0.663321
358.494600 3.959995
358.709500 4.012879
358.924300 0.849668
359.139200 0.692276
359.354100 0.897591
359.569000 0.681608
359.783900 0.996481
359.998900 1.827130
360.213800 1.769527
360.428800 4.072617
360.643800 1.270690
360.858700 0.934413
361.073700 1.451217
361.288800 0.716216
361.503800 2.549330
361.718800 2.137864
361.933900 2.040840
362.148900 0.990333
362.364000 1.430047
362.579100 1.201908
362.794200 4.002986
363.009300 0.967080
363.224500 0.807192
363.439600 1.127203
363.654800 4.034989
363.869900 1.010297
364.085100 1.002079
364.300300 1.316955
364.515500 0.922970
364.730800 1.044977
364.946000 1.293680
365.161200 0.996401
365.376500 1.225423
365.591800 0.964194
365.807100 1.568616
366.022400 4.056447
366.237700 1.513356
366.453000 0.873296
366.668400 4.089375
366.883700 4.063634
367.099100 4.077622
367.314500 4.085968
367.529900 4.111531
367.745300 1.352750
367.960700 1.062842
368.176100 2.615950
368.391600 1.280337
368.607000 1.752288
368.822500 4.111901
369.038000 0.654629
369.253500 0.928679
369.469000 0.958180
369.684500 1.886554
369.900100 4.150787
370.115600 1.032897
370.331200 1.262791
370.546800 1.013398
370.762400 1.096236
370.978000 4.107990
371.193600 1.122985
371.409200 1.106930
371.624900 4.160709
371.840500 4.181129
372.056200 1.103028
372.271900 1.802275
372.487600 1.067913
372.703300 1.787493
372.919000 0.880228
373.134800 1.548839
373.350500 0.961908
373.566300 4.154637
373.782000 1.742407
373.997800 1.787481
374.213600 0.859800
374.429400 0.983774
374.645300 0.866251
374.861100 1.332261
375.077000 1.480927
375.292800 1.360816
375.508700 1.107071
375.724600 1.433159
375.940500 0.978354
376.156400 4.224455
376.372400 1.435509
376.588300 1.543806
376.804300 1.645888
377.020300 1.156970
377.236200 1.512471
377.452200 4.269816
377.668200 0.867869
377.884300 1.319343
378.100300 1.741382
378.316400 4.291879
378.532400 1.541863
378.748500 1.607629
378.964600 4.312452
379.180700 1.769318
379.396800 1.158922
379.612900 4.277861
379.829100 1.596586
380.045200 4.285760
380.261400 1.641130
380.477600 2.068665
380.693800 0.798576
380.910000 1.369398
381.126200 4.287174
381.342400 1.348220
381.558700 1.324087
381.774900 4.288607
381.991200 1.418957
382.207500 4.314668
382.423800 1.039982
382.640100 1.019955
382.856400 1.389513
383.072800 4.319502
383.289100 1.490106
383.505500 2.366975
383.721900 1.441957
383.938200 2.370988
384.154600 1.006443
384.371100 4.337779
384.587500 1.098371
384.803900 4.366890
385.020400 1.287694
385.236800 1.662605
385.453300 1.314366
385.669800 1.322834
385.886300 1.317383
386.102800 1.630955
386.319400 1.147147
386.535900 1.678246
386.752500 1.041641
386.969000 4.367673
387.185600 1.318762
387.402200 0.970942
387.618800 1.092435
387.835500 1.618929
388.052100 1.305451
388.268700 4.405654
388.485400 1.304809
388.702100 1.331762
388.918800 1.117275
389.135500 1.394511
389.352200 1.096755
389.568900 1.062827
389.785600 1.135825
390.002400 1.341833
390.219200 1.112666
390.435900 1.312877
390.652700 1.764261
390.869500 1.343920
391.086300 1.078798
391.303200 0.998168
391.520000 0.981517
391.736900 0.980666
391.953700 0.958844
392.170600 0.949484
392.387500 0.938978
392.604400 1.080343
392.821300 1.025426
393.038300 0.910374
393.255200 0.833000
393.472200 1.066942
393.689100 0.865335
393.906100 1.141788
394.123100 0.768567
394.340100 1.045034
394.557200 0.791007
394.774200 0.943500
394.991200 0.847316
395.208300 0.762512
395.425400 0.840502
395.642500 0.829599
395.859600 0.803264
396.076700 0.776653
396.293800 0.753078
396.510900 0.867486
396.728100 0.719690
396.945300 0.824374
397.162400 0.803476
397.379600 0.734082
397.596800 0.706787
397.814000 0.765370
398.031300 0.748948
398.248500 0.648858
398.465800 0.656196
398.683000 0.693825
398.900300 0.650278
399.117600 0.640907
399.334900 0.608670
399.552200 0.639254
399.769600 0.655855
399.986900 0.554006
400.204300 0.633176
400.421600 0.595139
400.639000 0.571371
400.856400 0.672866
401.073800 0.564806
401.291200 0.588958
401.508700 0.635951
401.726100 0.607289
401.943600 0.569281
402.161000 0.533861
402.378500 0.564650
402.596000 0.549232
402.813500 0.549076
403.031000 0.527303
403.248600 0.543449
403.466100 0.506982
403.683700 0.520387
403.901300 0.513501
404.118900 0.511041
404.336500 0.500745
404.554100 0.448236
404.771700 0.499036
404.989300 0.475675
405.207000 0.518163
405.424600 0.459989
405.642300 0.486280
405.860000 0.513995
406.077700 0.502251
406.295400 0.497043
406.513100 0.523362
406.730900 0.421179
406.948600 0.508451
407.166400 0.499933
407.384200 0.447177
407.602000 0.488708
407.819800 0.407906
408.037600 0.452212
408.255400 0.379411
408.473300 0.420714
408.691100 0.448680
408.909000 0.442229
409.126900 0.441747
409.344800 0.378128
409.562700 0.401978
409.780600 0.396130
409.998500 0.386253
410.216500 0.425403
410.434400 0.427811
410.652400 0.454817
410.870400 0.370682
411.088400 0.393927
411.306400 0.339264
411.524400 0.385264
411.742400 0.413485
411.960500 0.385306
412.178500 0.357687
412.396600 0.368686
412.614700 0.357393
412.832800 0.351165
413.050900 0.377373
413.269000 0.344241
413.487100 0.401317
413.705300 0.366925
413.923400 0.372826
414.141600 0.384116
414.359800 0.371742
414.578000 0.337784
414.796200 0.409344
415.014400 0.372272
415.232600 0.327317
415.450900 0.373138
415.669200 0.322918
415.887400 0.318717
416.105700 0.373849
416.324000 0.377774
416.542300 0.363841
416.760600 0.375086
416.979000 0.352333
417.197300 0.337818
417.415700 0.311443
417.634100 0.301255
417.852400 0.347663
418.070800 0.302150
418.289300 0.326118
418.507700 0.317279
418.726100 0.321414
418.944600 0.322728
419.163000 0.357203
419.381500 0.325420
419.600000 0.301495
419.818500 0.358841
420.037000 0.332008
420.255500 0.335068
420.474100 0.312638
420.692600 0.310934
420.911200 0.280081
421.129800 0.297771
421.348300 0.333427
421.566900 0.306078
421.785600 0.350147
422.004200 0.301729
422.222800 0.299065
422.441500 0.321689
422.660100 0.304839
422.878800 0.290131
423.097500 0.303272
423.316200 0.289925
423.534900 0.319312
423.753600 0.354261
423.972400 0.305204
424.191100 0.326952
424.409900 0.266737
424.628700 0.298493
424.847500 0.302140
425.066300 0.342114
425.285100 0.303279
425.503900 0.315022
425.722800 0.317074
425.941600 0.282940
426.160500 0.374208
426.379300 0.284181
426.598200 0.297047
426.817100 0.297437
427.036100 0.284917
427.255000 0.302048
427.473900 0.281495
427.692900 0.300366
427.911800 0.317645
428.130800 0.307366
428.349800 0.265282
428.568800 0.292062
428.787800 0.300430
429.006800 0.281729
429.225900 0.288505
429.444900 0.288628
429.664000 0.280365
429.883100 0.300841
430.102200 0.300751
430.321300 0.318966
430.540400 0.308670
430.759500 0.337921
430.978700 0.288682
431.197800 0.339071
431.417000 0.286083
431.636200 0.320646
431.855300 0.297149
432.074500 0.279775
432.293800 0.297170
432.513000 0.312112
432.732200 0.297818
432.951500 0.341678
433.170700 0.342177
433.390000 0.287246
433.609300 0.316768
433.828600 0.301121
434.047900 0.351932
434.267300 0.313862
434.486600 0.292093
434.705900 0.324488
434.925300 0.328653
435.144700 0.339272
435.364100 0.267207
435.583500 0.317931
435.802900 0.305256
436.022300 0.335654
436.241800 0.306246
436.461200 0.313042
436.680700 0.317802
436.900100 0.346621
437.119600 0.335264
437.339100 0.313635
437.558600 0.303164
437.778200 0.310562
437.997700 0.305925
438.217300 0.335136
438.436800 0.344896
438.656400 0.349213
438.876000 0.316464
439.095600 0.321826
439.315200 0.339002
439.534800 0.288434
439.754500 0.335522
439.974100 0.348468
440.193800 0.362848
440.413500 0.333688
440.633100 0.341452
440.852800 0.307521
441.072500 0.338428
441.292300 0.336178
441.512000 0.301549
441.731800 0.359064
441.951500 0.350351
442.171300 0.338677
442.391100 0.337882
442.610900 0.364704
442.830700 0.336977
443.050500 0.368679
443.270300 0.338019
443.490200 0.343609
443.710100 0.349938
443.929900 0.354527
444.149800 0.346296
444.369700 0.388033
444.589600 0.342097
444.809500 0.348363
445.029500 0.379196
445.249400 0.373550
445.469400 0.391001
445.689400 0.371624
445.909300 0.342302
446.129300 0.351388
446.349300 0.377470
446.569400 0.448505
446.789400 0.366275
447.009400 0.412398
447.229500 0.393210
447.449600 0.374966
447.669600 0.355190
447.889700 0.367095
448.109800 0.394268
448.330000 0.388052
448.550100 0.410859
448.770200 0.406568
448.990400 0.427864
449.210600 0.425878
449.430700 0.376122
449.650900 0.396410
449.871100 0.399634
450.091400 0.399525
450.311600 0.416100
450.531800 0.392369
450.752100 0.381005
450.972400 0.384132
451.192600 0.392294
451.412900 0.393663
451.633200 0.384584
451.853500 0.415751
452.073900 0.403510
452.294200 0.429807
452.514600 0.421261
452.734900 0.428053
452.955300 0.406829
453.175700 0.428004
453.396100 0.447380
453.616500 0.468286
453.836900 0.456435
454.057400 0.442449
454.277800 0.427374
454.498300 0.442303
454.718800 0.393513
454.939300 0.465766
455.159700 0.484969
455.380300 0.479077
455.600800 0.449265
455.821300 0.453445
456.041900 0.438326
456.262400 0.427959
456.483000 0.478473
456.703600 0.462012
456.924200 0.483799
457.144800 0.489401
457.365400 0.483802
457.586000 0.462110
457.806700 0.520346
458.027400 0.534257
458.248000 0.468683
458.468700 0.476004
458.689400 0.514706
458.910100 0.506306
459.130800 0.546198
459.351600 0.482236
459.572300 0.525775
459.793100 0.490057
460.013800 0.511846
460.234600 0.530582
460.455400 0.510732
460.676200 0.568101
460.897000 0.480070
461.117800 0.516004
461.338700 0.494320
461.559500 0.533368
461.780400 0.467461
462.001300 0.537899
462.222200 0.517190
462.443100 0.552314
462.664000 0.558045
462.884900 0.550312
463.105900 0.622036
463.326800 0.587169
463.547800 0.591993
463.768700 0.586091
463.989700 0.604076
464.210700 0.584037
464.431700 0.585581
464.652800 0.611604
464.873800 0.595345
465.094800 0.601289
465.315900 0.607361
465.537000 0.597759
465.758100 0.661913
465.979200 0.648223
466.200300 0.653393
466.421400 0.615128
466.642500 0.642353
466.863700 0.610291
467.084800 0.649083
467.306000 0.626213
467.527200 0.642913
467.748400 0.611870
467.969600 0.595254
468.190800 0.686386
468.412000 0.737260
468.633300 0.667864
468.854500 0.658612
469.075800 0.621283
469.297000 0.745460
469.518300 0.639569
469.739600 0.644291
469.961000 0.627533
470.182300 0.726167
470.403600 0.699554
470.625000 0.757673
470.846300 0.633921
471.067700 0.809299
471.289100 0.787601
471.510500 0.691129
471.731900 0.733559
471.953300 0.733490
472.174800 0.766451
472.396200 0.647020
472.617700 0.718349
472.839100 0.653421
473.060600 0.736482
473.282100 0.784028
473.503600 0.713229
473.725100 0.739119
473.946700 0.752394
474.168200 0.824619
474.389800 0.757118
474.611300 0.741140
474.832900 0.769646
475.054500 0.828756
475.276100 0.791129
475.497700 0.822549
475.719300 0.766076
475.941000 0.847570
476.162600 0.765039
476.384300 0.791915
476.606000 0.906768
476.827700 0.888201
477.049400 0.802689
477.271100 0.732092
477.492800 0.859932
477.714500 0.803779
477.936300 0.868307
478.158000 0.891318
478.379800 0.880889
478.601600 0.783053
478.823400 0.823235
479.045200 0.859757
479.267000 0.931090
479.488800 0.934632
479.710700 1.028738
479.932500 0.901706
480.154400 0.992426
480.376300 0.769721
480.598200 0.865771
480.820100 0.873312
481.042000 0.941487
481.263900 0.904365
481.485900 0.872181
481.707800 0.976371
481.929800 0.987773
482.151700 0.852334
482.373700 0.952764
482.595700 0.975434
482.817700 1.022410
483.039800 0.901572
483.261800 0.958283
483.483800 0.978736
483.705900 0.900562
483.928000 0.911322
484.150100 1.039680
484.372100 0.934911
484.594300 1.007720
484.816400 0.947311
485.038500 0.968788
485.260600 1.108679
485.482800 1.004982
485.705000 0.992769
485.927100 1.018470
486.149300 1.045655
486.371500 1.081579
486.593700 1.151503
486.816000 1.110934
487.038200 1.118702
487.260500 1.147157
487.482700 1.139594
487.705000 1.044829
487.927300 1.027124
488.149600 1.074979
488.371900 1.061650
488.594200 1.121436
488.816500 1.091114
489.038900 1.103168
489.261200 1.222634
489.483600 1.103642
489.706000 1.167226
489.928400 1.134241
490.150800 1.007541
490.373200 1.034151
490.595600 1.229632
490.818000 1.091674
491.040500 1.232758
491.263000 1.091795
491.485400 1.007833
491.707900 1.161149
491.930400 1.256237
492.152900 1.055104
492.375500 1.145454
492.598000 1.228110
492.820500 1.114470
493.043100 1.245172
493.265700 1.203482
493.488200 1.138409
493.710800 1.261995
493.933400 1.033705
494.156100 1.061257
494.378700 1.108392
494.601300 1.075274
494.824000 1.147865
495.046600 1.227236
495.269300 1.181568
495.492000 1.083759
495.714700 1.253860
495.937400 1.055079
496.160100 1.110770
496.382900 1.098484
496.605600 1.249060
496.828400 1.196221
497.051100 1.228720
497.273900 1.274091
497.496700 1.112302
497.719500 1.079554
497.942300 1.377430
498.165200 1.265081
498.388000 1.077118
498.610900 1.275004
498.833700 1.060280
499.056600 1.468090
499.279500 1.201277
499.502400 1.346472
499.725300 1.220051
499.948200 1.180356
500.171200 1.308945
500.394100 1.233953
500.617100 1.243985
500.840000 1.156235
501.063000 1.242492
501.286000 1.296222
501.509000 1.283197
501.732000 1.129774
501.955100 1.039276
502.178100 1.213158
502.401200 1.256569
502.624200 1.444368
502.847300 1.080268
503.070400 1.274266
503.293500 1.284640
503.516600 1.272221
503.739700 1.142864
503.962800 1.359706
504.186000 1.124978
504.409200 1.245696
504.632300 1.205368
504.855500 1.190598
505.078700 1.219270
505.301900 1.330381
505.525100 1.141960
505.748300 1.329022
505.971600 1.152606
506.194800 1.334017
506.418100 1.175422
506.641400 1.415315
506.864700 1.467441
507.088000 1.266626
507.311300 1.069683
507.534600 1.756141
507.757900 1.088616
507.981300 1.249883
508.204600 1.184054
508.428000 1.302575
508.651400 0.989962
508.874800 1.149628
509.098200 1.184377
509.321600 1.137371
509.545000 1.324052
509.768500 1.184879
509.991900 1.241147
510.215400 1.284892
510.438800 1.227805
510.662300 1.413640
510.885800 1.321196
511.109300 1.657209
511.332900 1.389713
511.556400 1.262034
511.779900 1.307872
512.003500 1.142641
512.227000 1.430133
512.450600 1.240979
512.674200 1.105942
512.897800 1.213122
513.121400 1.153603
513.345100 1.143689
513.568700 1.066519
513.792300 1.152898
514.016000 1.237749
514.239700 1.392230
514.463400 1.185187
514.687100 1.289508
514.910800 1.287935
515.134500 1.102389
515.358200 1.225133
515.581900 1.370127
515.805700 1.219356
516.029500 1.214744
516.253200 0.980987
516.477000 1.252947
516.700800 1.039481
516.924600 1.065775
517.148500 1.047625
517.372300 1.133811
517.596100 1.020428
517.820000 1.316332
518.043900 1.100850
518.267700 1.194417
518.491600 1.335984
518.715500 1.217577
518.939500 1.203577
519.163400 1.322219
519.387300 1.181383
519.611300 1.518616
519.835200 1.272846
520.059200 1.109083
520.283200 1.144011
520.507200 0.992030
520.731200 1.154928
520.955200 1.297825
521.179200 1.154701
521.403300 1.032845
521.627300 1.202666
521.851400 0.936671
522.075500 1.092085
522.299600 1.166892
522.523700 1.071751
522.747800 1.113377
522.971900 1.196255
523.196000 1.015153
523.420200 0.967479
523.644300 1.002691
523.868500 1.052994
524.092700 1.063318
524.316900 1.049937
524.541100 1.069836
524.765300 1.007109
524.989500 1.013196
525.213800 1.144671
525.438000 0.965729
525.662300 1.075855
525.886500 1.145511
526.110800 1.049069
526.335100 1.026925
526.559400 0.910779
526.783700 1.183899
527.008100 1.107499
527.232400 0.894518
527.456800 0.980659
527.681100 0.871516
527.905500 1.078902
528.129900 1.005759
528.354300 1.009230
528.578700 0.978679
528.803100 1.045455
529.027600 1.018174
529.252000 1.024758
529.476500 1.053778
529.700900 0.875904
529.925400 0.981176
530.149900 0.958536
530.374400 0.891074
530.598900 0.932816
530.823400 0.927879
531.048000 0.968123
531.272500 0.852384
531.497100 0.975778
531.721700 0.841426
531.946200 1.008596
532.170800 0.826244
532.395400 0.932977
532.620000 0.887782
532.844700 0.800373
533.069300 0.886881
533.294000 0.881302
533.518600 0.869558
533.743300 0.857325
533.968000 0.807657
534.192700 0.854586
534.417400 0.888874
534.642100 0.868579
534.866800 0.835123
535.091600 0.818857
535.316300 0.847553
535.541100 0.824541
535.765900 0.777172
535.990700 0.744489
536.215500 0.849136
536.440300 0.784114
536.665100 0.809512
536.889900 0.761089
537.114800 0.747191
537.339600 0.819194
537.564500 0.812099
537.789400 0.798133
538.014300 0.776414
538.239200 0.714227
538.464100 0.765624
538.689000 0.712194
538.913900 0.824650
539.138900 0.703285
539.363800 0.681110
539.588800 0.717268
539.813800 0.723267
540.038800 0.695557
540.263800 0.701472
540.488800 0.715260
540.713800 0.708553
540.938900 0.700039
541.163900 0.670505
541.389000 0.693509
541.614000 0.643866
541.839100 0.680966
542.064200 0.632524
542.289300 0.711486
542.514400 0.713129
542.739600 0.696850
542.964700 0.592793
543.189900 0.648898
543.415000 0.628333
543.640200 0.699094
543.865400 0.606141
544.090600 0.659637
544.315800 0.625070
544.541000 0.640380
544.766200 0.655954
544.991500 0.638301
545.216700 0.658144
545.442000 0.673124
545.667300 0.616280
545.892600 0.570671
546.117900 0.595980
546.343200 0.554554
546.568500 0.560288
546.793800 0.568576
547.019200 0.494234
547.244500 0.545388
547.469900 0.531259
547.695300 0.553416
547.920600 0.506661
548.146000 0.562203
548.371500 0.514765
548.596900 0.554419
548.822300 0.492600
549.047800 0.530555
549.273200 0.524311
549.498700 0.509302
549.724200 0.488491
549.949600 0.480204
550.175100 0.511505
550.400700 0.537809
550.626200 0.477237
550.851700 0.461438
551.077300 0.534248
551.302800 0.469161
551.528400 0.415705
551.754000 0.475758
551.979600 0.454980
552.205200 0.425919
552.430800 0.450272
552.656400 0.441575
552.882000 0.450652
553.107700 0.437795
553.333300 0.427689
553.559000 0.411608
553.784700 0.440738
554.010400 0.460558
554.236100 0.411702
554.461800 0.404645
554.687500 0.414935
554.913200 0.424559
555.139000 0.386802
555.364800 0.413185
555.590500 0.411246
555.816300 0.377983
556.042100 0.400540
556.267900 0.392961
556.493700 0.405692
556.719500 0.348233
556.945400 0.394892
557.171200 0.344881
557.397100 0.379982
557.623000 0.367088
557.848800 0.370890
558.074700 0.378251
558.300600 0.405923
558.526600 0.356714
558.752500 0.343288
558.978400 0.322303
559.204400 0.329459
559.430300 0.371925
559.656300 0.329837
559.882300 0.321906
560.108300 0.308872
560.334300 0.357444
560.560300 0.372803
560.786300 0.327052
561.012400 0.309526
561.238400 0.319525
561.464500 0.288918
561.690500 0.324399
561.916600 0.311373
562.142700 0.299911
562.368800 0.284463
562.594900 0.318993
562.821100 0.303864
563.047200 0.309099
563.273300 0.313675
563.499500 0.298743
563.725700 0.305095
563.951900 0.264725
564.178100 0.279429
564.404300 0.296472
564.630500 0.272889
564.856700 0.272562
565.082900 0.269476
565.309200 0.266710
565.535500 0.260215
565.761700 0.246125
565.988000 0.260164
566.214300 0.256049
566.440600 0.207284
566.666900 0.251020
566.893200 0.237800
567.119600 0.221782
567.345900 0.257532
567.572300 0.235058
567.798700 0.232169
568.025000 0.217182
568.251400 0.233015
568.477800 0.241852
568.704300 0.242351
568.930700 0.246593
569.157100 0.246933
569.383600 0.223333
569.610000 0.216794
569.836500 0.233691
570.063000 0.219766
570.289500 0.222841
570.516000 0.216981
570.742500 0.209682
570.969000 0.212874
571.195600 0.221843
571.422100 0.201612
571.648700 0.208047
571.875200 0.207825
572.101800 0.204371
572.328400 0.218590
572.555000 0.188905
572.781600 0.220040
573.008200 0.214042
573.234900 0.210280
573.461500 0.202921
573.688200 0.203273
573.914900 0.205692
574.141500 0.198150
574.368200 0.196874
574.594900 0.185896
574.821600 0.179375
575.048400 0.194758
575.275100 0.184002
575.501800 0.189475
575.728600 0.188345
575.955400 0.186916
576.182100 0.199696
576.408900 0.185284
576.635700 0.184547
576.862600 0.177563
577.089400 0.165783
577.316200 0.165036
577.543100 0.175184
577.769900 0.168063
577.996800 0.172448
578.223700 0.162894
578.450500 0.167654
578.677400 0.163611
578.904400 0.163395
579.131300 0.165467
579.358200 0.150177
579.585100 0.166529
579.812100 0.160617
580.039100 0.153234
580.266000 0.152759
580.493000 0.152991
580.720000 0.154170
580.947000 0.156126
581.174100 0.148474
581.401100 0.144489
581.628100 0.148265
581.855200 0.142091
582.082200 0.145320
582.309300 0.145025
582.536400 0.147696
582.763500 0.144726
582.990600 0.139809
583.217700 0.138403
583.444900 0.137633
583.672000 0.138670
583.899100 0.160621
584.126300 0.145223
584.353500 0.141302
584.580700 0.137449
584.807900 0.147851
585.035100 0.146720
585.262300 0.136337
585.489500 0.138387
585.716700 0.136120
585.944000 0.130909
586.171300 0.131988
586.398500 0.133155
586.625800 0.142226
586.853100 0.131712
587.080400 0.135590
587.307700 0.123100
587.535000 0.130290
587.762400 0.112903
587.989700 0.121126
588.217100 0.119323
588.444500 0.128102
588.671800 0.122429
588.899200 0.123948
589.126600 0.111398
589.354000 0.135216
589.581500 0.129551
589.808900 0.126826
590.036300 0.130249
590.263800 0.119091
590.491300 0.113494
590.718700 0.120211
590.946200 0.124093
591.173700 0.126009
591.401200 0.134946
591.628800 0.129816
591.856300 0.123703
592.083800 0.118022
592.311400 0.107057
592.538900 0.111597
592.766500 0.114167
592.994100 0.120632
593.221700 0.116712
593.449300 0.114926
593.676900 0.109387
593.904600 0.112585
594.132200 0.112595
594.359800 0.106180
594.587500 0.104276
594.815200 0.111673
595.042900 0.119412
595.270500 0.117119
595.498300 0.104766
595.726000 0.132765
595.953700 0.129020
596.181400 0.106566
596.409200 0.106404
596.636900 0.122882
596.864700 0.113405
597.092500 0.125718
597.320300 0.114123
597.548100 0.127046
597.775900 0.117673
598.003700 0.120762
598.231500 0.117511
598.459400 0.105661
598.687200 0.114147
598.915100 0.104469
599.143000 0.113446
599.370900 0.112082
599.598800 0.118778
599.826700 0.099811
600.054600 0.117475
600.282500 0.104060
600.510500 0.106935
600.738400 0.106138
600.966400 0.099000
601.194400 0.097903
601.422300 0.096709
601.650300 0.096178
601.878300 0.097136
602.106400 0.101531
602.334400 0.109540
602.562400 0.110399
602.790500 0.107828
603.018500 0.103067
603.246600 0.112019
603.474700 0.103040
603.702800 0.108076
603.930900 0.110255
604.159000 0.097061
604.387100 0.101959
604.615200 0.091037
604.843400 0.100103
605.071500 0.109136
605.299700 0.096773
605.527900 0.105748
605.756100 0.102731
605.984300 0.098337
606.212500 0.088018
606.440700 0.074981
606.668900 0.093518
606.897200 0.080845
607.125400 0.091057
607.353700 0.087455
607.581900 0.102696
607.810200 0.092580
608.038500 0.089693
608.266800 0.082786
608.495100 0.086215
608.723500 0.078865
608.951800 0.089983
609.180100 0.093624
609.408500 0.081990
609.636900 0.094479
609.865300 0.092820
610.093600 0.096997
610.322000 0.093882
610.550500 0.081793
610.778900 0.081094
611.007300 0.091553
611.235700 0.081543
611.464200 0.098325
611.692700 0.094119
611.921100 0.088454
612.149600 0.097287
612.378100 0.090372
612.606600 0.091038
612.835100 0.095741
613.063700 0.098872
613.292200 0.092508
613.520800 0.078309
613.749300 0.101985
613.977900 0.099773
614.206500 0.101720
614.435100 0.092547
614.663700 0.094785
614.892300 0.088202
615.120900 0.080010
615.349500 0.103388
615.578200 0.098632
615.806800 0.093622
616.035500 0.083821
616.264200 0.092140
616.492900 0.085681
616.721600 0.102366
616.950300 0.080481
617.179000 0.078913
617.407700 0.079446
617.636500 0.085673
617.865200 0.089759
618.094000 0.085170
618.322700 0.083811
618.551500 0.075145
618.780300 0.071877
619.009100 0.074447
619.237900 0.086492
619.466700 0.090218
619.695600 0.100869
619.924400 0.087453
620.153300 0.089361
620.382100 0.092780
620.611000 0.078397
620.839900 0.081532
621.068800 0.081000
621.297700 0.082867
621.526600 0.079613
621.755600 0.092841
621.984500 0.073574
622.213500 0.071697
622.442400 0.085689
622.671400 0.093775
622.900400 0.074618
623.129400 0.087518
623.358400 0.087737
623.587400 0.077268
623.816400 0.079629
624.045400 0.080357
624.274500 0.086963
624.503500 0.073979
624.732600 0.084810
624.961700 0.085029
625.190800 0.078458
625.419900 0.066807
625.649000 0.084390
625.878100 0.077290
626.107200 0.093132
626.336400 0.081429
626.565500 0.109398
626.794700 0.077061
627.023800 0.069888
627.253000 0.083141
627.482200 0.064339
627.711400 0.078960
627.940600 0.086828
628.169800 0.076850
628.399100 0.090230
628.628300 0.071808
628.857600 0.073880
629.086800 0.102535
629.316100 0.074970
629.545400 0.071198
629.774700 0.079432
630.004000 0.082011
630.233300 0.087760
630.462600 0.079450
630.692000 0.072126
630.921300 0.073047
631.150700 0.085483
631.380100 0.092662
631.609400 0.086451
631.838800 0.104144
632.068200 0.066116
632.297600 0.083727
632.527100 0.077765
632.756500 0.070281
632.985900 0.080230
633.215400 0.070623
633.444800 0.083926
633.674300 0.103471
633.903800 0.053669
634.133300 0.074609
634.362800 0.078034
634.592300 0.082556
634.821800 0.078369
635.051400 0.088458
635.280900 0.070463
635.510500 0.066704
635.740000 0.095783
635.969600 0.068673
636.199200 0.057649
636.428800 0.070009
636.658400 0.081071
636.888000 0.089854
637.117700 0.085736
637.347300 0.090588
637.577000 0.097230
637.806600 0.103973
638.036300 0.096418
638.266000 0.091603
638.495700 0.095840
638.725400 0.060978
638.955100 0.084738
639.184800 0.048613
639.414500 0.071943
639.644300 0.076587
639.874000 0.065916
640.103800 0.069946
640.333600 0.090258
640.563300 0.056650
640.793100 0.075504
641.022900 0.064629
641.252800 0.077065
641.482600 0.090367
641.712400 0.071696
641.942300 0.081026
642.172100 0.104907
642.402000 0.073425
642.631900 0.061380
642.861700 0.076839
643.091600 0.102535
643.321600 0.081912
643.551500 0.064980
643.781400 0.078996
644.011300 0.072739
644.241300 0.095833
644.471200 0.074767
644.701200 0.066568
644.931200 0.100694
645.161200 0.057440
645.391200 0.087370
645.621200 0.101800
645.851200 0.058077
646.081200 0.062481
646.311300 0.062868
646.541300 0.120926
646.771400 0.054168
647.001500 0.092388
647.231600 0.071538
647.461600 0.074399
647.691800 0.042916
647.921900 0.074546
648.152000 0.094319
648.382100 0.099128
648.612300 0.100233
648.842400 0.073483
649.072600 0.113610
649.302800 0.098768
649.532900 0.078621
649.763100 0.057736
649.993300 0.074756
650.223600 0.111435
650.453800 0.034819
650.684000 0.053037
650.914300 0.094378
651.144500 0.091760
651.374800 0.091535
651.605100 0.051145
651.835400 0.040586
652.065700 0.074634
652.296000 0.080518
652.526300 0.071008
652.756600 0.054385
652.987000 0.076541
653.217300 0.069301
653.447700 0.108899
653.678000 0.075939
653.908400 0.057075
654.138800 0.061096
654.369200 0.074396
654.599600 0.089442
654.830000 0.118876
655.060500 0.136992
655.290900 0.151301
655.521300 0.136716
655.751800 0.099810
655.982300 0.002910
656.212800 0.000974
656.443300 0.001458
656.673800 0.001232
656.904300 0.037178
657.134800 0.090328
657.365300 0.085929
657.595900 0.087800
657.826400 0.088854
658.057000 0.096052
658.287500 0.102004
658.518100 0.092423
658.748700 0.091153
658.979300 0.109349
659.209900 0.124266
659.440600 0.144106
659.671200 0.155711
659.901800 0.142640
660.132500 0.121993
660.363200 0.147070
660.593800 0.113832
660.824500 0.067466
661.055200 0.097836
661.285900 0.069489
661.516600 0.067630
661.747400 0.097830
661.978100 0.038243
662.208800 0.112540
662.439600 0.100361
662.670400 0.084807
662.901100 0.103949
663.131900 0.098348
663.362700 0.047283
663.593500 0.126027
663.824300 0.074660
664.055200 0.071388
664.286000 0.041192
664.516800 0.110996
664.747700 0.081994
664.978600 0.062656
665.209400 0.081497
665.440300 0.075374
665.671200 0.077698
665.902100 0.083941
666.133000 0.090079
666.364000 0.070589
666.594900 0.072802
666.825900 0.063701
667.056800 0.080000
667.287800 0.083738
667.518800 0.081218
667.749700 0.074422
667.980700 0.067538
668.211700 0.059885
668.442800 0.059640
668.673800 0.047348
668.904800 0.061492
669.135900 0.147918
669.366900 0.078370
669.598000 0.064579
669.829100 0.081318
670.060200 0.056228
670.291300 0.109331
670.522400 0.069715
670.753500 0.071710
670.984600 0.089639
671.215700 0.088294
671.446900 0.095907
671.678100 0.105676
671.909200 0.109354
672.140400 0.086779
672.371600 0.053953
672.602800 0.085414
672.834000 0.070544
673.065200 0.052580
673.296400 0.077641
673.527700 0.103020
673.758900 0.051178
673.990200 0.077001
674.221400 0.095861
674.452700 0.052592
674.684000 0.066539
674.915300 0.088688
675.146600 0.085029
675.377900 0.071205
675.609300 0.077094
675.840600 0.094604
676.071900 0.098229
676.303300 0.076606
676.534700 0.064649
676.766100 0.106270
676.997400 0.087024
677.228800 0.071646
677.460200 0.045741
677.691700 0.057710
677.923100 0.073967
678.154500 0.049635
678.386000 0.066321
678.617400 0.025171
678.848900 0.082739
679.080400 0.044967
679.311900 0.098331
679.543400 0.091427
679.774900 0.046553
680.006400 0.083065
680.237900 0.123040
680.469400 0.058139
680.701000 0.074744
680.932500 0.070722
681.164100 0.071240
681.395700 0.078743
681.627300 0.049189
681.858900 0.093846
682.090500 0.084725
682.322100 0.104712
682.553700 0.082327
682.785400 0.050365
683.017000 0.112464
683.248700 0.075218
683.480300 0.063070
683.712000 0.038591
683.943700 0.081496
684.175400 0.078096
684.407100 0.074117
684.638800 0.064338
684.870500 0.081786
685.102300 0.068166
685.334000 0.056007
685.565800 0.099477
685.797500 0.079166
686.029300 0.080345
686.261100 0.091421
686.492900 0.103040
686.724700 0.064101
686.956500 0.054881
687.188300 0.074596
687.420200 0.104206
687.652000 0.079356
687.883800 0.085038
688.115700 0.082757
688.347600 0.092135
688.579500 0.103102
688.811400 0.081234
689.043300 0.074955
689.275200 0.071813
689.507100 0.073943
689.739000 0.077531
689.971000 0.065481
690.202900 0.046915
690.434900 0.055737
690.666900 0.089026
690.898800 0.069952
691.130800 0.113044
691.362800 0.055417
691.594800 0.072826
691.826900 0.068283
692.058900 0.057837
692.290900 0.098242
692.523000 0.085074
692.755000 0.084266
692.987100 0.090737
693.219200 0.074101
693.451300 0.088809
693.683400 0.097196
693.915500 0.101163
694.147600 0.050635
694.379700 0.069238
694.611900 0.068235
694.844000 0.087112
695.076200 0.050467
695.308300 0.105421
695.540500 0.077405
695.772700 0.056421
696.004900 0.123333
696.237100 0.069753
696.469300 0.070791
696.701600 0.092691
696.933800 0.053401
697.166000 0.066114
697.398300 0.078905
697.630600 0.079522
697.862800 0.079224
698.095100 0.100447
698.327400 0.054840
698.559700 0.075290
698.792000 0.071402
699.024300 0.094615
699.256700 0.084409
699.489000 0.098572
699.721400 0.050912
699.953700 0.092437
700.186100 0.108520
700.418500 0.058217
700.650900 0.069738
700.883300 0.062675
701.115700 0.092635
701.348100 0.044898
701.580600 0.081822
701.813000 0.093210
702.045400 0.066366
702.277900 0.058455
702.510400 0.068257
702.742900 0.070235
702.975300 0.090368
703.207800 0.049294
703.440300 0.079263
703.672900 0.126654
703.905400 0.060781
704.137900 0.087343
704.370500 0.073356
704.603000 0.086422
704.835600 0.076660
705.068200 -0.003038
705.300800 0.052939
705.533400 0.077881
705.766000 0.046710
705.998600 0.091014
706.231200 0.081838
706.463800 0.086732
706.696500 0.091106
706.929100 0.057324
707.161800 0.048048
707.394500 0.100301
707.627200 0.062362
707.859900 0.093737
708.092600 0.114765
708.325300 0.045811
708.558000 0.064780
708.790700 0.079527
709.023500 0.078783
709.256200 0.044853
709.489000 0.052726
709.721700 0.062295
709.954500 0.051476
710.187300 0.031384
710.420100 0.104049
710.652900 0.051180
710.885700 0.065372
711.118600 0.076027
711.351400 0.060730
711.584200 0.080204
711.817100 0.035752
712.050000 0.047386
712.282800 0.052494
712.515700 0.069769
712.748600 0.098717
712.981500 0.046659
713.214400 0.061620
713.447400 0.039840
713.680300 0.090836
713.913200 0.037838
714.146200 0.077657
714.379100 0.069712
714.612100 0.092842
714.845100 0.045940
715.078100 0.070247
715.311100 0.034519
715.544100 0.066434
715.777100 0.053916
716.010200 0.058932
716.243200 0.051790
716.476200 0.090519
716.709300 0.093621
716.942400 0.080040
717.175400 0.066994
717.408500 0.079150
717.641600 0.037862
717.874700 0.107548
718.107800 0.093735
718.341000 0.104419
718.574100 0.029106
718.807200 0.084824
719.040400 0.095000
719.273600 0.098088
719.506700 0.108823
719.739900 0.075502
719.973100 0.074637
720.206300 0.074224
720.439500 0.070158
720.672700 0.098435
720.906000 0.033283
721.139200 0.063955
721.372500 0.060339
721.605700 0.069775
721.839000 0.093150
722.072300 0.089383
722.305500 0.061332
722.538800 0.054260
722.772100 0.078722
723.005500 0.056853
723.238800 0.047070
723.472100 0.086678
723.705500 0.081953
723.938800 0.063106
724.172200 0.067783
724.405600 0.058462
724.638900 0.104617
724.872300 0.062773
725.105700 0.110822
725.339100 0.052260
725.572600 0.048907
725.806000 0.039080
726.039400 0.087318
726.272900 0.083308
726.506300 0.086614
726.739800 0.078983
726.973300 0.044302
727.206800 0.076053
727.440300 0.103962
727.673800 0.035149
727.907300 0.069744
728.140800 0.044976
728.374300 0.074438
728.607900 0.068000
728.841400 0.058507
729.075000 0.030267
729.308600 0.066342
729.542100 0.063872
729.775700 0.083566
730.009300 0.029856
730.242900 0.066574
730.476600 0.096907
730.710200 0.085603
730.943800 0.083310
731.177500 0.099261
731.411100 0.064590
731.644800 0.090963
731.878500 0.072626
732.112200 0.070738
732.345800 0.085495
732.579500 0.107018
732.813300 0.109260
733.047000 0.070942
733.280700 0.106811
733.514500 0.082470
733.748200 0.085990
733.982000 0.086550
734.215700 0.059979
734.449500 0.076773
734.683300 0.091841
734.917100 0.082700
735.150900 0.084197
735.384700 0.098236
735.618500 0.070084
735.852400 0.065011
736.086200 0.080451
736.320100 0.099820
736.553900 0.095066
736.787800 0.055533
737.021700 0.069106
737.255600 0.074067
737.489500 0.064460
737.723400 0.049785
737.957300 0.056666
738.191200 0.071517
738.425200 0.073610
738.659100 0.069705
738.893100 0.062895
739.127100 0.105037
739.361000 0.062415
739.595000 0.085707
739.829000 0.052512
740.063000 0.064665
740.297000 0.056233
740.531000 0.055232
740.765100 0.088233
740.999100 0.097553
741.233200 0.052455
741.467200 0.082801
741.701300 0.068403
741.935400 0.038566
742.169500 0.034739
742.403600 0.084013
742.637700 0.054387
742.871800 0.046120
743.105900 0.062249
743.340000 0.069997
743.574200 0.078049
743.808300 0.059575
744.042500 0.058415
744.276700 0.061521
744.510800 0.100386
744.745000 0.043541
744.979200 0.085070
745.213400 0.043786
745.447700 0.057004
745.681900 0.093057
745.916100 0.070378
746.150400 0.050457
746.384600 0.048197
746.618900 0.054892
746.853200 0.077779
747.087400 0.103365
747.321700 0.111568
747.556000 0.102095
747.790300 0.089694
748.024700 0.051204
748.259000 0.041364
748.493300 0.094917
748.727700 0.065469
748.962000 0.076276
749.196400 0.071204
749.430800 0.091973
749.665200 0.056917
749.899500 0.075593
750.133900 0.081354
750.368400 0.058593
750.602800 0.063752
750.837200 0.064658
751.071700 0.062809
751.306100 0.093422
751.540600 0.064910
751.775000 0.073118
752.009500 0.084438
752.244000 0.063972
752.478500 0.056577
752.713000 0.080854
752.947500 0.043265
753.182000 0.115346
753.416600 0.037186
753.651100 0.088630
753.885600 0.066210
754.120200 0.077087
754.354800 0.065581
754.589400 0.068575
754.823900 0.066326
755.058500 0.077917
755.293100 0.062547
755.527800 0.081886
755.762400 0.084019
755.997000 0.077185
756.231700 0.073757
756.466300 0.067327
756.701000 0.065622
756.935600 0.074475
757.170300 0.066145
757.405000 0.081884
757.639700 0.099668
757.874400 0.081920
758.109100 0.093719
758.343800 0.074222
758.578600 0.080015
758.813300 0.087311
759.048100 0.093045
759.282800 0.072772
759.517600 0.091663
759.752400 0.091968
759.987200 0.066865
760.222000 0.066379
760.456800 0.090584
760.691600 0.088878
760.926400 0.079498
761.161300 0.062445
761.396100 0.068778
761.631000 0.056053
761.865800 0.095685
762.100700 0.056213
762.335600 0.077865
762.570500 0.043649
762.805400 0.062156
763.040300 0.074738
763.275200 0.101536
763.510100 0.079138
763.745000 0.096666
763.980000 0.106333
764.214900 0.068153
764.449900 0.080992
764.684900 0.081046
764.919800 0.054851
765.154800 0.054814
765.389800 0.070471
765.624800 0.086662
765.859900 0.079846
766.094900 0.075064
766.329900 0.084458
766.565000 0.089272
766.800000 0.060732
767.035100 0.071311
767.270100 0.083671
767.505200 0.050837
767.740300 0.091824
767.975400 0.057490
768.210500 0.070202
768.445600 0.062595
768.680800 0.073851
768.915900 0.115169
769.151000 0.079084
769.386200 0.071294
769.621400 0.064494
769.856500 0.087067
770.091700 0.066479
770.326900 0.051215
770.562100 0.067704
770.797300 0.081027
771.032500 0.032765
771.267700 0.070184
771.503000 0.083278
771.738200 0.079706
771.973500 0.057871
772.208700 0.062974
772.444000 0.080979
772.679300 0.058618
772.914600 0.051047
773.149900 0.034028
773.385200 0.063926
773.620500 0.062246
773.855800 0.070961
774.091100 0.077375
774.326500 0.065262
774.561800 0.083370
774.797200 0.107319
775.032600 0.123499
775.267900 0.061539
775.503300 0.059141
775.738700 0.060231
775.974100 0.074510
776.209500 0.046734
776.445000 0.060961
776.680400 0.096673
776.915800 0.035529
777.151300 0.066622
777.386800 0.044917
777.622200 0.073463
777.857700 0.045859
778.093200 0.071238
778.328700 0.057365
778.564200 0.041476
778.799700 0.058210
779.035200 0.074025
779.270700 0.061481
779.506300 0.076913
779.741800 0.056652
779.977400 0.029472
780.213000 0.094144
780.448500 0.105867
780.684100 0.086426
780.919700 0.060388
781.155300 0.060798
781.390900 0.082327
781.626500 0.097083
781.862200 0.063613
782.097800 0.068611
782.333500 0.100692
782.569100 0.070577
782.804800 0.057731
783.040500 0.072796
783.276100 0.067932
783.511800 0.089449
783.747500 0.090027
783.983200 0.066331
784.219000 0.087189
784.454700 0.065376
784.690400 0.086511
784.926200 0.082344
785.161900 0.079744
785.397700 0.071330
785.633500 0.106891
785.869200 0.112413
786.105000 0.103773
786.340800 0.083507
786.576600 0.083167
786.812400 0.087785
787.048300 0.079416
787.284100 0.070601
787.519900 0.065452
787.755800 0.075214
787.991700 0.049831
788.227500 0.040347
788.463400 0.110473
788.699300 0.113101
788.935200 0.100393
789.171100 0.080599
789.407000 0.070890
789.642900 0.067298
789.878900 0.113393
790.114800 0.086743
790.350700 0.049185
790.586700 0.096585
790.822700 0.123586
791.058600 0.093187
791.294600 0.120205
791.530600 0.053249
791.766600 0.063801
792.002600 0.083916
792.238700 0.037702
792.474700 0.076453
792.710700 0.065176
792.946800 0.040110
793.182800 0.028181
793.418900 0.091705
793.655000 0.093366
793.891000 0.084557
794.127100 0.107318
794.363200 0.119013
794.599300 0.052840
794.835500 0.062037
795.071600 0.082740
795.307700 0.078770
795.543900 0.090500
795.780000 0.096476
796.016200 0.112947
796.252300 0.076591
796.488500 0.085515
796.724700 0.100165
796.960900 0.032033
797.197100 0.052835
797.433300 0.063203
797.669500 0.059094
797.905800 0.046134
798.142000 0.061534
798.378300 0.035300
798.614500 0.069011
798.850800 0.092742
799.087100 0.044526
799.323300 0.069518
799.559600 0.030179
799.795900 0.094244
800.032200 0.109201
800.268600 0.040779
800.504900 0.055048
800.741200 0.049656
800.977600 0.063599
801.213900 0.094741
801.450300 0.129440
801.686700 0.082867
801.923000 0.103839
802.159400 0.086559
802.395800 0.056796
802.632200 0.130897
802.868600 0.048935
803.105100 0.092275
803.341500 0.050653
803.577900 0.089458
803.814400 0.086837
804.050800 0.042691
804.287300 0.078243
804.523800 0.078131
804.760300 0.131692
804.996800 0.008418
805.233300 0.115072
805.469800 0.094941
805.706300 0.068510
805.942800 0.076560
806.179400 0.057672
806.415900 0.042788
806.652500 0.071970
806.889000 0.102320
807.125600 0.089718
807.362200 0.079316
807.598800 0.032913
807.835400 0.109405
808.072000 0.062403
808.308600 0.104264
808.545200 0.078536
808.781800 0.084546
809.018500 0.072099
809.255100 0.096709
809.491800 0.057079
809.728400 0.049995
809.965100 0.045484
810.201800 0.109796
810.438500 0.047994
810.675200 0.056057
810.911900 0.053941
811.148600 0.086618
811.385300 0.043798
811.622100 0.086554
811.858800 0.088360
812.095600 0.061593
812.332300 0.095969
812.569100 0.067145
812.805900 0.108142
813.042700 0.023449
813.279500 0.061373
813.516300 0.054122
813.753100 0.075311
813.989900 0.079386
814.226700 0.131592
814.463600 0.068648
814.700400 0.054796
814.937300 0.072157
815.174200 0.068325
815.411000 0.032011
815.647900 0.061065
815.884800 0.062043
816.121700 0.088711
816.358600 0.096581
816.595500 0.077500
816.832400 0.055803
817.069400 0.135957
817.306300 0.119354
817.543300 0.050839
817.780200 0.072819
818.017200 0.102005
818.254200 0.113024
818.491200 0.024434
818.728200 0.074697
818.965200 0.109322
819.202200 0.086643
819.439200 0.075040
819.676200 0.013467
819.913300 0.057789
820.150300 0.042496
820.387400 0.146079
820.624400 0.102703
820.861500 0.053099
821.098600 0.048319
821.335700 0.127619
821.572700 0.171547
821.809900 0.061405
822.047000 0.100702
822.284100 0.038651
822.521200 0.098545
822.758400 0.080272
822.995500 0.127416
823.232700 0.118529
823.469800 0.093527
823.707000 0.070264
823.944200 0.059121
824.181400 0.079604
824.418600 0.021981
824.655800 0.107371
824.893000 0.029241
825.130200 0.085231
825.367500 0.058101
825.604700 0.019699
825.841900 -0.009465
826.079200 0.082591
826.316500 0.090879
826.553700 -0.013540
826.791000 0.158638
827.028300 0.105730
827.265600 0.111011
827.502900 0.059371
827.740200 0.084802
827.977600 0.074667
828.214900 0.098507
828.452200 0.175990
828.689600 0.012498
828.927000 0.043236
829.164300 0.052488
829.401700 0.099857
829.639100 0.049873
829.876500 0.008215
830.113900 0.093914
830.351300 0.062398
830.588700 0.006166
830.826100 0.098000
831.063600 0.013849
831.301000 0.074586
831.538500 0.120436
831.775900 0.006280
832.013400 -0.001686
832.250900 0.115908
832.488400 0.073742
832.725900 0.015033
832.963400 0.024055
833.200900 0.127502
833.438400 0.082326
833.675900 0.165607
833.913500 0.163895
834.151000 0.160937
834.388600 0.134218
834.626100 0.039434
834.863700 0.086724
835.101300 0.049735
835.338900 0.061531
835.576500 0.046604
835.814100 0.015045
836.051700 0.001007
836.289300 0.183360
836.526900 0.062930
836.764600 0.161027
837.002200 0.230468
837.239900 -0.016563
837.477500 0.061685
837.715200 0.060684
837.952900 0.168583
838.190600 0.036698
838.428300 0.126392
838.666000 0.049704
838.903700 0.082368
839.141400 0.129718
839.379100 0.058842
839.616900 0.053375
839.854600 0.109363
840.092400 0.011492
840.330200 0.002769
840.567900 -0.008502
840.805700 0.106694
841.043500 0.172375
841.281300 0.131012
841.519100 0.012033
841.756900 0.063655
841.994700 -0.032318
842.232600 0.116129
842.470400 0.167700
842.708200 0.037145
842.946100 0.285565
843.184000 -0.038950
843.421800 0.146112
843.659700 0.006493
843.897600 -0.018629
844.135500 0.139004
844.373400 -0.020507
844.611300 0.176417
844.849200 0.123232
845.087200 0.173564
845.325100 0.073429
845.563100 0.133553
845.801000 0.033189
846.039000 0.145157
846.277000 0.049556
846.514900 -0.044142
846.752900 0.044179
846.990900 0.007020
847.228900 0.061483
847.466900 0.155345
847.705000 0.129750
847.943000 0.039270
848.181000 0.061949
848.419100 0.109634
848.657100 -0.017100
848.895200 -0.018391
849.133300 0.045287
849.371300 0.008288
849.609400 -0.060195
849.847500 0.056403
850.085600 0.144244
850.323700 0.082811
850.561900 -0.012909
850.800000 0.131725
851.038100 0.037949
851.276300 -0.078388
851.514400 0.034106
851.752600 0.078445
851.990800 0.068320
852.228900 0.086144
852.467100 0.154540
852.705300 0.050719
852.943500 0.105231
853.181700 0.122250
853.420000 0.020380
853.658200 0.055923
853.896400 0.088336
854.134700 0.083313
854.372900 0.078416
854.611200 0.059222
854.849500 0.106390
855.087700 0.176655
855.326000 0.119519
855.564300 0.080104
855.802600 0.104235
856.040900 0.083613
856.279200 0.101022
856.517600 0.108777
856.755900 0.052382
856.994200 -0.001172
857.232600 0.044528
857.471000 0.061465
857.709300 0.045953
857.947700 0.046925
858.186100 0.108861
858.424500 0.013983
858.662900 0.071191
858.901300 0.098419
859.139700 0.060622
859.378100 -0.065264
859.616600 0.136468
859.855000 0.073525
860.093500 0.155813
860.331900 0.045554
860.570400 0.238253
860.808900 0.055113
861.047300 0.148508
861.285800 0.093894
861.524300 0.152103
861.762800 0.022724
862.001300 0.089417
862.239900 0.127759
862.478400 0.004719
862.716900 0.028819
862.955500 0.014245
863.194000 0.007590
863.432600 0.016283
863.671200 0.063492
863.909800 0.081834
864.148300 0.066299
864.386900 -0.014964
864.625500 0.117242
864.864200 0.135363
865.102800 -0.051088
865.341400 0.054652
865.580000 0.117360
865.818700 0.046589
866.057300 0.084379
866.296000 0.096640
866.534700 0.089353
866.773300 0.129109
867.012000 -0.000781
867.250700 0.099934
867.489400 0.029871
867.728100 0.057313
867.966900 0.232996
868.205600 0.000835
868.444300 0.077832
868.683100 -0.060580
868.921800 0.035859
869.160600 -0.018025
869.399300 -0.034782
869.638100 0.058843
869.876900 0.163563
870.115700 0.069903
870.354500 0.097187
870.593300 0.134341
870.832100 0.042689
871.070900 0.075536
871.309700 0.076155
871.548600 0.111778
871.787400 0.008145
872.026300 -0.046365
872.265100 0.062806
872.504000 0.063571
872.742900 -0.053635
872.981800 0.109930
873.220700 0.020701
873.459600 0.187214
873.698500 0.099410
873.937400 0.038425
874.176300 0.054586
874.415300 0.151641
874.654200 0.071237
874.893200 0.063286
875.132100 0.018141
875.371100 0.099051
875.610100 0.066194
875.849100 0.109610
876.088000 0.116549
876.327000 0.110770
876.566100 0.150622
876.805100 -0.050676
877.044100 -0.041401
877.283100 -0.067602
877.522200 -0.031115
877.761200 0.245821
878.000300 0.194170
878.239300 0.045915
878.478400 0.125568
878.717500 0.025184
878.956600 0.117332
879.195700 0.138130
879.434800 0.136192
879.673900 -0.035436
879.913000 0.094164
880.152100 0.051896
880.391300 0.129416
880.630400 0.065880
880.869600 0.029694
881.108700 -0.010409
881.347900 0.085332
881.587100 0.020209
881.826200 0.123882
882.065400 0.126963
882.304600 0.003309
882.543800 0.055204
882.783100 0.153164
883.022300 -0.098737
883.261500 0.103978
883.500700 0.000683
883.740000 -0.040611
883.979200 0.187053
884.218500 0.004702
884.457800 -0.016033
884.697100 0.014694
884.936300 0.073735
885.175600 0.086451
885.414900 0.124551
885.654200 0.007987
885.893600 -0.016910
886.132900 0.205845
886.372200 0.027939
886.611600 -0.087560
886.850900 0.168946
887.090300 0.065185
887.329600 0.004283
887.569000 0.006640
887.808400 0.156942
888.047800 -0.052762
888.287200 -0.096192
888.526600 -0.027806
888.766000 -0.121742
889.005400 0.199376
889.244800 0.157219
889.484300 -0.009051
889.723700 0.130213
889.963200 0.111787
890.202600 0.149430
890.442100 0.072259
890.681600 0.066414
890.921100 0.057457
891.160600 0.087905
891.400100 -0.042688
891.639600 0.078098
891.879100 -0.000081
892.118600 0.146509
892.358100 0.049713
892.597700 0.095538
892.837200 0.216215
893.076800 0.154365
893.316300 0.041491
893.555900 0.194934
893.795500 0.134130
894.035100 0.046188
894.274700 0.028208
894.514300 0.284475
894.753900 -0.090711
894.993500 0.117360
895.233100 -0.000121
895.472700 0.016783
895.712400 0.227744
895.952000 0.031568
896.191700 0.199304
896.431400 0.032707
896.671000 0.146656
896.910700 0.146683
897.150400 0.017367
897.390100 -0.044454
897.629800 0.073512
897.869500 0.158487
898.109200 0.141191
898.348900 0.120366
898.588700 0.036164
898.828400 0.093440
899.068200 0.086353
899.307900 0.091800
899.547700 0.192169
899.787500 0.086709
900.027200 -0.142100
900.267000 0.042347
900.506800 0.133405
900.746600 -0.010012
900.986400 0.153596
901.226300 0.111246
901.466100 0.145494
901.705900 0.031519
901.945800 -0.092929
902.185600 0.034097
902.425500 -0.016930
902.665400 -0.027037
902.905200 0.051524
903.145100 -0.030620
903.385000 -0.031850
903.624900 -0.073907
903.864800 -0.019195
904.104700 -0.038422
904.344600 0.066786
904.584600 -0.099984
904.824500 0.081677
905.064400 0.087800
905.304400 0.058676
905.544400 0.244553
905.784300 0.111205
906.024300 -0.051820
906.264300 0.183432
906.504300 0.043732
906.744300 0.081994
906.984300 0.082770
907.224300 0.066733
907.464300 0.225511
907.704300 -0.059525
907.944400 0.029568
908.184400 -0.052899
908.424500 0.006394
908.664500 -0.077813
908.904600 0.004759
909.144700 0.136419
909.384700 0.125623
909.624800 -0.082675
909.864900 0.115393
910.105000 0.153655
910.345200 -0.047850
910.585300 0.123143
910.825400 0.191677
911.065500 0.026454
911.305700 0.167780
911.545800 -0.007239
911.786000 0.107210
912.026200 0.038437
912.266300 0.179976
912.506500 0.088482
912.746700 0.028801
912.986900 -0.037536
913.227100 0.072562
913.467300 0.096640
913.707500 -0.046374
913.947800 0.045327
914.188000 0.068986
914.428300 0.138806
914.668500 0.166607
914.908800 0.085910
915.149000 -0.107283
915.389300 0.036488
915.629600 0.204139
915.869900 -0.030702
916.110200 -0.069891
916.350500 0.172691
916.590800 0.094781
916.831100 0.098200
917.071400 -0.008480
917.311800 0.070928
917.552100 -0.037572
917.792500 -0.044062
918.032800 0.118259
918.273200 0.100279
918.513600 0.009283
918.753900 -0.033274
918.994300 -0.042385
919.234700 0.294468
919.475100 0.033753
919.715500 0.008253
919.956000 0.046518
920.196400 -0.141861
920.436800 0.200835
920.677300 0.067945
920.917700 0.043062
921.158200 0.114048
921.398600 0.350721
921.639100 0.200659
921.879600 -0.225582
922.120100 -0.080215
922.360600 0.023584
922.601100 -0.172243
922.841600 0.160813
923.082100 -0.041244
923.322600 0.015670
923.563100 -0.081834
923.803700 0.027372
924.044200 -0.084786
924.284800 -0.049772
924.525400 0.049335
924.765900 0.320536
925.006500 -0.020696
925.247100 0.007894
925.487700 -0.056335
925.728300 0.176652
925.968900 0.649897
926.209500 0.069269
926.450100 0.177105
926.690800 0.378364
926.931400 0.074683
927.172000 0.232175
927.412700 0.056159
927.653300 -0.025299
927.894000 0.288814
928.134700 0.178997
928.375400 -0.057507
928.616100 0.001049
928.856800 -0.132057
929.097500 -0.246947
929.338200 0.048822
929.578900 0.168397
929.819600 -0.022000
930.060400 0.010334
930.301100 0.096226
930.541900 -0.013083
930.782600 0.087541
931.023400 -0.035307
931.264200 0.105650
931.504900 0.428517
931.745700 0.078083
931.986500 -0.115405
932.227300 0.189207
932.468100 0.342776
932.708900 -0.096390
932.949800 -0.008852
933.190600 0.022683
933.431400 0.106674
933.672300 -0.160478
933.913100 0.065870
934.154000 0.244229
934.394900 0.080017
934.635800 0.069409
934.876600 0.044766
935.117500 0.006954
935.358400 0.273625
935.599300 0.224333
935.840300 0.033097
936.081200 0.045385
936.322100 -0.123253
936.563000 0.180461
936.804000 0.137154
937.044900 -0.210383
937.285900 -0.158654
937.526900 0.555175
937.767800 0.775152
938.008800 0.044780
938.249800 -0.025807
938.490800 0.421845
938.731800 0.329550
938.972800 0.122758
939.213800 0.121437
939.454900 0.061148
939.695900 0.321465
939.936900 0.175237
940.178000 0.576586
940.419000 0.106367
940.660100 0.027881
940.901200 0.018846
941.142200 -0.027200
941.383300 -0.039228
941.624400 0.069144
941.865500 0.084007
942.106600 -0.046781
942.347700 -0.106356
942.588900 0.344368
942.830000 -0.088642
943.071100 -0.057895
943.312300 0.191505
943.553400 -0.018595
943.794600 0.322986
944.035700 0.007615
944.276900 0.267943
944.518100 -0.247332
944.759300 -0.023833
945.000500 0.081514
945.241700 0.029321
945.482900 0.301030
945.724100 0.125963
945.965300 -0.012436
946.206600 -0.098684
946.447800 0.351526
946.689100 0.002243
946.930300 -0.343685
947.171600 0.124762
947.412800 -0.222317
947.654100 0.116279
947.895400 0.070868
948.136700 -0.217080
948.378000 -0.337503
948.619300 0.286179
948.860600 3.265290
949.101900 0.258997
949.343300 -0.201032
949.584600 -0.015585
949.825900 0.086961
950.067300 0.277605
950.308600 -0.395177
950.550000 0.042811
950.791400 -0.349825
951.032700 -0.417073
951.274100 -0.394533
951.515500 0.234309
951.756900 -0.137105
951.998300 0.037654
952.239800 -0.159312
952.481200 -0.290737
952.722600 -0.136379
952.964000 0.102742
953.205500 -0.025633
953.446900 -0.158142
953.688400 -0.043035
953.929900 0.141562
954.171300 -1.180971
954.412800 -0.290259
954.654300 0.340981
954.895800 1.044354
955.137300 -0.186427
955.378800 -0.095431
955.620300 -0.539477
955.861800 0.332469
956.103400 -0.070845
956.344900 -0.133637
956.586500 0.025957
956.828000 0.458609
957.069600 -0.162355
957.311100 -0.634890
957.552700 0.104768
957.794300 -0.187503
958.035900 -0.286025
958.277500 -0.182303
958.519100 -0.052019
958.760700 0.072078
959.002300 0.775125
959.243900 0.136792
959.485600 0.021478
959.727200 3.149219
959.968800 -0.347206
960.210500 -0.347191
960.452200 -0.467404
960.693800 0.306294
960.935500 -3.059942
961.177200 0.129368
961.418900 -0.298611
961.660600 0.169255
961.902300 0.792624
962.144000 -0.326979
962.385700 -0.367576
962.627400 0.254341
962.869200 -0.289694
963.110900 0.211499
963.352700 0.275440
963.594400 0.243634
963.836200 2.999565
964.077900 0.070252
964.319700 -0.346803
964.561500 0.301030
964.803300 -0.131430
965.045100 -0.353111
965.286900 2.791691
965.528700 -0.290329
965.770500 -0.210931
966.012300 -0.412680
966.254200 -0.199092
966.496000 -0.508026
966.737900 -0.219034
966.979700 0.191915
967.221600 -0.379202
967.463400 0.198708
967.705300 1.183805
967.947200 -0.478917
968.189100 -0.266882
968.431000 0.100431
968.672900 0.305515
968.914800 3.030195
969.156700 -0.456595
969.398700 -0.383824
969.640600 -0.913754
969.882500 -0.269565
970.124500 -0.807369
970.366400 0.348578
970.608400 -0.090250
970.850400 2.710117
971.092300 -0.214748
971.334300 -0.162561
971.576300 0.147004
971.818300 -0.171076
972.060300 0.132518
972.302300 1.218176
972.544300 -0.272793
972.786400 0.258184
973.028400 0.298341
973.270400 0.035099
973.512500 -0.113197
973.754500 -0.006005
973.996600 -0.318055
974.238700 -0.051437
974.480700 2.853698
974.722800 0.286073
974.964900 0.477722
975.207000 0.172011
975.449100 -0.407399
975.691200 0.211829
975.933300 2.853698
976.175500 -3.270679
976.417600 0.632851
976.659700 -0.162480
976.901900 0.309795
977.144000 -0.009103
977.386200 -0.226665
977.628300 0.390866
977.870500 2.185007
978.112700 -0.223299
978.354900 -0.370464
978.597100 -0.122060
978.839300 0.276386
979.081500 0.550612
979.323700 -3.139879
979.565900 -0.209620
979.808200 0.213366
980.050400 0.086463
980.292600 0.419768
980.534900 3.012837
980.777100 2.971276
981.019400 -0.120504
981.261700 3.201124
981.504000 3.348889
981.746200 0.137528
981.988500 0.139938
982.230800 1.851258
982.473100 0.537429
982.715500 0.236645
982.957800 -0.669007
983.200100 -0.254927
983.442400 -0.710938
983.684800 2.799341
983.927100 -0.061402
984.169500 0.643004
984.411800 -0.140815
984.654200 0.125945
984.896600 0.889661
985.139000 -1.721374
985.381400 0.810868
985.623800 0.091879
985.866200 0.407819
986.108600 -2.482874
986.351000 -0.056533
986.593400 -0.131622
986.835800 0.448975
987.078300 2.682145
987.320700 0.401440
987.563200 0.006977
987.805600 -0.420083
988.048100 3.189209
988.290600 0.630089
988.533100 -2.612784
988.775600 -0.087357
989.018000 0.922153
989.260500 -0.097479
989.503100 -1.968483
989.745600 -1.165960
989.988100 0.000000
990.230600 3.097604
990.473200 1.981265
990.715700 0.189864
990.958200 -0.536195
991.200800 -0.174526
991.443400 -3.207365
991.685900 -0.298908
991.928500 0.000000
992.171100 -0.803533
992.413700 0.082444
992.656300 0.276306
992.898900 2.866287
993.141500 0.205136
993.384100 3.021603
993.626700 0.381965
993.869400 1.052852
994.112000 -0.202846
994.354700 0.626168
994.597300 3.030195
994.840000 -1.968483
995.082600 -0.031876
995.325300 2.269513
995.568000 0.466494
995.810700 -0.758256
996.053400 2.866287
996.296100 -0.319069
996.538800 -0.212545
996.781500 3.171141
997.024200 -0.824103
997.267000 2.791691
997.509700 0.186674
997.752400 2.768638
997.995200 0.708730
998.237900 0.162492
998.480700 0.017100
998.723500 -3.026533
998.966200 -0.156101
999.209000 -2.342423
999.451800 0.873557
999.694600 3.025715
999.937400 -0.294721
1000.180200 0.944801
1000.423000 1.244071
1000.665900 2.907949
1000.908700 -0.630334
1001.151500 -0.307488
1001.394400 -0.226665
1001.637200 0.595583
1001.880100 -1.603866
1002.123000 -0.331620
1002.365800 -0.443479
1002.608700 -0.651091
1002.851600 -0.113249
1003.094500 -0.085367
1003.337400 2.217484
1003.580300 -2.418301
1003.823200 0.446490
1004.066100 0.527659
1004.309100 2.719331
1004.552000 -0.175239
1004.794900 0.234789
1005.037900 0.435641
1005.280800 -0.067141
1005.523800 0.275070
1005.766700 0.006477
1006.009700 -0.160090
1006.252700 -2.655138
1006.495700 0.101106
1006.738700 -2.981366
1006.981700 0.052942
1007.224700 0.170339
1007.467700 -1.304212
1007.710700 -0.361079
1007.953800 0.086186
1008.196800 -0.306966
1008.439800 0.777045
1008.682900 0.984395
1008.925900 0.037662
1009.169000 1.026896
1009.412100 -3.026533
1009.655100 -1.009268
1009.898200 0.146331
1010.141300 0.464486
1010.384400 0.151901
1010.627500 0.131927
1010.870600 0.130215
1011.113700 3.086360
1011.356800 2.820201
1011.600000 -1.698747
1011.843100 2.872156
1012.086300 -2.588832
1012.329400 2.907411
1012.572600 0.000000
1012.815700 -0.335352
1013.058900 -3.017868
1013.302100 -0.063923
1013.545200 0.992463
1013.788400 -0.186240
1014.031600 -2.674861
1014.274800 0.462398
1014.518000 3.161967
1014.761300 -0.018086
1015.004500 -2.539076
1015.247700 -0.325244
1015.490900 0.000000
1015.734200 -0.059271
1015.977400 2.450249
1016.220700 -3.126131
1016.464000 0.370216
1016.707200 -1.117806
1016.950500 2.378398
1017.193800 -0.474609
1017.437100 -0.860133
1017.680400 0.446350
1017.923700 2.975891
1018.167000 3.231724
1018.410300 -0.391577
1018.653600 0.258675
1018.896900 3.021603
1019.140300 -0.089061
1019.383600 -0.030969
1019.627000 -0.049149
1019.870300 0.047082
1020.113700 0.322618
1020.357100 2.575188
1020.600400 -0.098125
1020.843800 1.121775
1021.087200 0.509703
1021.330600 -3.043362
1021.574000 -0.107049
1021.817400 -2.634477
1022.060800 -2.860937
1022.304200 0.000000
1022.547700 -0.397068
1022.791100 0.134116
1023.034500 0.050986
