# Wavelength	Absorbance
197.780200 2.878522
197.984200 2.907949
198.188200 3.093772
198.392200 -0.159840
198.596300 0.250662
198.800300 2.318063
199.004400 2.918555
199.208500 2.866287
199.412600 -0.102968
199.616800 2.768638
199.820900 2.465383
200.025100 2.877947
200.229200 2.463893
200.433400 0.646872
200.637600 2.745075
200.841800 2.902003
201.046100 0.431108
201.250300 3.142702
201.454600 3.220892
201.658900 3.051153
201.863100 0.166742
202.067400 2.760422
202.271800 0.470522
202.476100 0.158539
202.680500 2.827369
202.884800 2.980458
203.089200 3.034628
203.293600 2.745075
203.498000 -0.216728
203.702400 -0.366832
203.906900 -0.477121
204.111300 -2.552668
204.315800 0.230043
204.520300 3.062958
204.724800 -0.115580
204.929300 2.396199
205.133800 3.093772
205.338400 2.820201
205.543000 0.851288
205.747500 2.682145
205.952100 2.791691
206.156700 3.034628
206.361400 -2.684845
206.566000 2.187521
206.770600 0.326218
206.975300 -0.141696
207.180000 0.845098
207.384700 2.587711
207.589400 -2.914343
207.794100 2.480007
207.998900 -0.441869
208.203600 3.152288
208.408400 0.502464
208.613200 2.820201
208.818000 -0.471535
209.022800 2.414973
209.227600 2.820201
209.432500 2.907949
209.637300 2.752816
209.842200 -0.025680
210.047100 2.798651
210.252000 2.053078
210.456900 1.807606
210.661800 0.032950
210.866800 0.017757
211.071800 3.104487
211.276700 2.907949
211.481700 -0.091619
211.686700 -0.121891
211.891800 0.462974
212.096800 1.734200
212.301800 2.890421
212.506900 0.773620
212.712000 0.123687
212.917100 0.625369
213.122200 2.866287
213.327300 0.365979
213.532500 0.000000
213.737600 2.985426
213.942800 1.447158
214.148000 2.631444
214.353200 0.000000
214.558400 2.956168
214.763600 3.265290
214.968900 0.977448
215.174100 0.551819
215.379400 0.000000
215.584700 2.846955
215.790000 -0.121724
215.995300 0.175763
216.200700 -0.073489
216.406000 2.902003
216.611400 -0.115580
216.816800 2.833784
217.022200 2.621176
217.227600 0.206691
217.433000 -0.477121
217.638400 3.047275
217.843900 2.700704
218.049400 0.000000
218.254800 3.275081
218.460300 1.406540
218.665900 0.483382
218.871400 3.234517
219.076900 0.464000
219.282500 0.337697
219.488100 0.882922
219.693600 0.160654
219.899200 3.267641
220.104900 0.088299
220.310500 -0.486076
220.516100 -2.995635
220.721800 2.872156
220.927500 0.750999
221.133200 2.902003
221.338900 2.902003
221.544600 2.846955
221.750300 3.183555
221.956100 0.684695
222.161800 2.338456
222.367600 -0.043844
222.573400 -0.270890
222.779200 -2.800029
222.985000 0.000000
223.190900 1.225059
223.396700 2.621176
223.602600 0.468104
223.808500 2.736397
224.014400 2.853698
224.220300 2.935507
224.426200 2.719331
224.632200 2.727541
224.838100 -0.204050
225.044100 0.291485
225.250100 -0.249801
225.456100 2.653213
225.662100 -0.195558
225.868100 2.127105
226.074200 0.535547
226.280200 0.000000
226.486300 1.568202
226.692400 0.000000
226.898500 3.101403
227.104600 2.294466
227.310700 3.111934
227.516900 2.833784
227.723000 2.089905
227.929200 0.568008
228.135400 3.074816
228.341600 2.622214
228.547800 3.108227
228.754100 0.017567
228.960300 2.245513
229.166600 0.000000
229.372900 -0.214922
229.579100 2.683047
229.785500 2.791691
229.991800 0.845098
230.198100 0.361999
230.404500 -0.258929
230.610800 0.249543
230.817200 0.000000
231.023600 2.890421
231.230000 0.321319
231.436400 3.152288
231.642900 -0.227951
231.849300 0.070705
232.055800 2.008600
232.262300 1.361045
232.468800 1.959041
232.675300 2.701568
232.881800 2.599883
233.088400 -0.302978
233.294900 -0.513855
233.501500 2.902003
233.708100 -2.995635
233.914700 2.710963
234.121300 0.000000
234.327900 2.776701
234.534600 2.682145
234.741300 3.097604
234.947900 2.736397
235.154600 3.406199
235.361300 0.419252
235.568000 1.229624
235.774800 2.662758
235.981500 -0.192055
236.188300 0.000000
236.395100 0.902655
236.601800 -2.737987
236.808700 0.337697
237.015500 0.641275
237.222300 2.853698
237.429200 3.265290
237.636000 0.128626
237.842900 1.851258
238.049800 2.918555
238.256700 0.100544
238.463600 0.023919
238.670600 2.970812
238.877500 3.161967
239.084500 -3.108903
239.291500 3.226342
239.498500 2.245513
239.705500 2.643453
239.912500 1.845098
240.119500 -0.954243
240.326600 -0.701206
240.533700 0.000000
240.740700 2.621176
240.947800 2.990339
241.154900 3.059185
241.362100 0.387241
241.569200 2.632457
241.776400 1.080052
241.983500 2.783904
242.190700 0.680487
242.397900 -2.879669
242.605100 2.537819
242.812400 2.587711
243.019600 3.242293
243.226900 0.545765
243.434100 2.913284
243.641400 0.113147
243.848700 -0.043305
244.056000 0.000000
244.263400 -0.101136
244.470700 0.860069
244.678100 3.082426
244.885400 0.848559
245.092800 0.017503
245.300200 2.357935
245.507600 3.330008
245.715100 3.034628
245.922500 3.026125
246.130000 1.230449
246.337500 0.480263
246.544900 2.396199
246.752400 3.362859
246.960000 3.165244
247.167500 3.215373
247.375000 -2.600973
247.582600 3.025715
247.790200 -1.080214
247.997800 0.304730
248.205400 3.262925
248.413000 0.708386
248.620600 0.104292
248.828300 3.270213
249.035900 -0.144332
249.243600 3.093772
249.451300 3.282396
249.659000 1.028215
249.866700 0.300735
250.074500 0.673674
250.282200 0.232362
250.490000 -0.121724
250.697800 2.846955
250.905600 -0.320022
251.113400 2.929930
251.321200 2.736397
251.529000 2.008600
251.736900 3.177536
251.944700 0.912516
252.152600 0.475341
252.360500 2.710117
252.568400 2.662758
252.776300 -0.456973
252.984300 0.237361
253.192200 2.985426
253.400200 0.436693
253.608200 2.599883
253.816200 0.962249
254.024200 0.058491
254.232200 -0.111366
254.440200 -2.320146
254.648300 2.769377
254.856400 2.701568
255.064400 -0.311097
255.272500 3.097604
255.480600 0.705155
255.688800 0.000000
255.896900 3.030195
256.105100 3.284882
256.313200 -0.334255
256.521400 2.827369
256.729600 0.255600
256.937800 1.074524
257.146000 -0.361396
257.354300 -2.096910
257.562500 3.204120
257.770800 0.000000
257.979100 0.228266
258.187400 0.130493
258.395700 3.082785
258.604000 0.598466
258.812400 2.919078
259.020700 3.026125
259.229100 3.093772
259.437500 2.975891
259.645900 3.198382
259.854300 2.878522
260.062700 3.125481
260.271100 2.621176
260.479600 0.343256
260.688100 -0.373718
260.896500 0.498505
261.105000 2.089905
261.313500 2.621176
261.522100 3.142702
261.730600 0.584233
261.939200 0.909176
262.147700 0.098357
262.356300 2.745075
262.564900 -0.291457
262.773500 2.907411
262.982200 3.198382
263.190800 -2.320146
263.399500 0.351913
263.608100 3.039017
263.816800 0.296641
264.025500 -0.539811
264.234200 -0.721307
264.442900 2.053078
264.651700 0.327489
264.860400 2.662758
265.069200 3.051153
265.278000 0.590665
265.486800 2.975891
265.695600 2.450249
265.904400 0.083384
266.113300 2.599883
266.322100 0.263304
266.531000 2.294466
266.739900 -0.761676
266.948800 3.125806
267.157700 2.884795
267.366600 0.958468
267.575500 -0.387616
267.784500 -0.497825
267.993500 2.994757
268.202400 2.970812
268.411400 0.701456
268.620500 2.761176
268.829500 2.775974
269.038500 2.123852
269.247600 0.132367
269.456600 2.008600
269.665700 2.965672
269.874800 2.907411
270.083900 3.255273
270.293100 0.000000
270.502200 0.206613
270.711400 -0.473868
270.920500 0.472057
271.129700 2.985426
271.338900 0.377623
271.548100 2.691965
271.757300 0.150526
271.966600 1.098029
272.175800 1.675549
272.385100 3.132580
272.594400 0.216463
272.803700 3.021603
273.013000 2.799341
273.222300 0.127289
273.431600 0.427257
273.641000 3.209783
273.850400 -0.255560
274.059700 2.945961
274.269100 3.209515
274.478500 2.950851
274.688000 3.183555
274.897400 0.546141
275.106900 1.591065
275.316300 3.055378
275.525800 -0.027400
275.735300 0.000000
275.944800 0.262381
276.154300 2.662758
276.363900 0.133168
276.573400 2.840106
276.783000 0.074135
276.992600 2.846955
277.202200 -0.174139
277.411800 0.010219
277.621400 2.727541
277.831000 3.118595
278.040700 3.177536
278.250300 2.820201
278.460000 0.467160
278.669700 2.980458
278.879400 2.432969
279.089100 -0.122282
279.298900 0.568202
279.508600 3.025715
279.718400 0.241765
279.928100 -2.957128
280.137900 3.215373
280.347700 2.632457
280.557600 0.408278
280.767400 3.039017
280.977200 -0.207387
281.187100 0.000000
281.397000 0.425263
281.606900 0.000000
281.816800 0.284821
282.026700 2.357935
282.236600 0.009691
282.446600 0.169931
282.656500 -2.096910
282.866500 2.791691
283.076500 -0.382529
283.286500 3.115278
283.496500 3.030600
283.706500 0.004321
283.916600 0.288796
284.126600 0.845098
284.336700 2.966142
284.546800 2.587711
284.756900 0.068587
284.967000 0.428179
285.177100 0.606806
285.387300 0.000000
285.597400 3.017033
285.807600 -0.830023
286.017800 1.129893
286.228000 0.000000
286.438200 0.185110
286.648400 2.940516
286.858700 3.265290
287.068900 2.760422
287.279200 0.092607
287.489500 -0.580662
287.699800 3.158965
287.910100 2.621176
288.120400 3.047275
288.330800 2.220108
288.541100 3.352954
288.751500 2.217484
288.961900 -0.111731
289.172300 -2.096910
289.382700 3.074816
289.593100 2.913284
289.803500 0.000000
290.014000 2.980458
290.224500 0.204272
290.434900 0.000000
290.645400 2.783904
290.855900 2.653213
291.066500 3.146128
291.277000 2.744293
291.487500 2.768638
291.698100 -0.045609
291.908700 2.338456
292.119300 0.532845
292.329900 0.047334
292.540500 2.728354
292.751100 2.956168
292.961800 0.000000
293.172400 0.257091
293.383100 0.000000
293.593800 -0.248033
293.804500 2.495544
294.015200 0.379485
294.226000 0.000000
294.436700 -0.103749
294.647500 2.866287
294.858200 1.282425
295.069000 0.587031
295.279800 0.051551
295.490600 -2.164353
295.701500 -0.218883
295.912300 3.082785
296.123200 3.247728
296.334000 2.719331
296.544900 1.219899
296.755800 3.220892
296.966700 0.086826
297.177700 0.393292
297.388600 0.164888
297.599500 0.477121
297.810500 0.993348
298.021500 0.713056
298.232500 0.141960
298.443500 1.690196
298.654500 0.954820
298.865600 1.523746
299.076600 -0.062631
299.287700 0.000000
299.498800 0.386876
299.709900 2.902003
299.921000 0.736207
300.132100 0.081492
300.343200 0.140434
300.554400 0.031390
300.765500 2.853698
300.976700 0.000000
301.187900 3.104487
301.399100 2.813581
301.610300 3.129368
301.821500 0.965065
302.032800 0.137407
302.244100 0.189436
302.455300 0.283357
302.666600 0.049654
302.877900 3.226342
303.089200 -0.286504
303.300600 0.608810
303.511900 2.970812
303.723300 0.203294
303.934600 2.884795
304.146000 0.845098
304.357400 2.432969
304.568800 -0.056135
304.780300 3.192289
304.991700 0.046630
305.203100 2.271842
305.414600 -0.039162
305.626100 1.015713
305.837600 0.674785
306.049100 -0.066010
306.260600 3.051153
306.472200 2.245513
306.683700 0.344988
306.895300 2.575188
307.106900 3.231724
307.318400 -0.134164
307.530100 3.165244
307.741700 2.806180
307.953300 0.708987
308.165000 0.000000
308.376600 1.168380
308.588300 0.414278
308.800000 3.034227
309.011700 3.215109
309.223400 -0.024028
309.435100 2.450249
309.646900 -0.216036
309.858600 0.284881
310.070400 3.129045
310.282200 -0.717195
310.494000 0.760790
310.705800 3.168203
310.917600 0.205290
311.129500 2.840106
311.341300 3.296446
311.553200 0.957696
311.765100 0.494811
311.977000 0.165894
312.188900 3.122544
312.400800 1.428540
312.612700 0.915927
312.824700 3.292034
313.036600 3.158965
313.248600 3.332034
313.460600 0.245217
313.672600 3.275081
313.884600 0.332011
314.096700 -0.346569
314.308700 1.076288
314.520800 3.104828
314.732800 3.402777
314.944900 0.746454
315.157000 2.084106
315.369200 0.683112
315.581300 -0.060542
315.793400 2.653213
316.005600 0.906196
316.217700 3.168203
316.429900 3.525174
316.642100 3.168203
316.854300 -0.036240
317.066600 3.463445
317.278800 3.417139
317.491100 3.192289
317.703300 0.410947
317.915600 3.296446
318.127900 3.445760
318.340200 0.230137
318.552500 3.255273
318.764900 3.139249
318.977200 3.437592
319.189600 0.531884
319.401900 0.742478
319.614300 3.245019
319.826700 0.196653
320.039200 3.358886
320.251600 0.805102
320.464000 1.239350
320.676500 3.265290
320.889000 2.465383
321.101400 3.348889
321.313900 0.270854
321.526500 0.477386
321.739000 3.376577
321.951500 3.472903
322.164100 0.229490
322.376600 0.722459
322.589200 3.362859
322.801800 3.327767
323.014400 1.196619
323.227000 0.306823
323.439700 1.163276
323.652300 1.552214
323.865000 3.374748
324.077700 3.558108
324.290400 0.948541
324.503100 3.378580
324.715800 3.399154
324.928500 0.232573
325.141200 1.287264
325.354000 0.561337
325.566800 3.389875
325.779600 0.617646
325.992400 3.314710
326.205200 3.542576
326.418000 3.474362
326.630800 1.083184
326.843700 3.659250
327.056600 0.356128
327.269400 3.416973
327.482300 3.531990
327.695200 0.531051
327.908200 0.385524
328.121100 0.185586
328.334000 3.554126
328.547000 1.539778
328.760000 3.502700
328.973000 3.578983
329.186000 0.359648
329.399000 3.445915
329.612000 1.492953
329.825100 3.485153
330.038100 0.933561
330.251200 3.572872
330.464300 1.384140
330.677400 3.635484
330.890500 1.642741
331.103600 1.000129
331.316700 3.641970
331.529900 3.658298
331.743100 1.361162
331.956200 0.621925
332.169400 1.025168
332.382600 1.298160
332.595900 0.744964
332.809100 1.284620
333.022300 0.715937
333.235600 0.778555
333.448900 3.655235
333.662200 3.609381
333.875500 3.666331
334.088800 3.518251
334.302100 0.955191
334.515400 3.647089
334.728800 1.242197
334.942200 0.888969
335.155500 0.677151
335.368900 3.756864
335.582300 0.419465
335.795800 3.676968
336.009200 1.275476
336.222700 3.666237
336.436100 3.725258
336.649600 0.665938
336.863100 0.821140
337.076600 0.624471
337.290100 3.741388
337.503600 0.746786
337.717200 0.879621
337.930700 3.722716
338.144300 1.203545
338.357900 3.656290
338.571500 3.715669
338.785100 3.703205
338.998700 0.734979
339.212400 1.001064
339.426000 0.870160
339.639700 1.198919
339.853300 3.765594
340.067000 0.941359
340.280700 1.062303
340.494500 1.567357
340.708200 3.745543
340.921900 3.796644
341.135700 0.873684
341.349500 3.731266
341.563300 0.588703
341.777100 3.818094
341.990900 3.831166
342.204700 3.816042
342.418500 1.595074
342.632400 3.830460
342.846300 3.839164
343.060100 1.092050
343.274000 2.546283
343.487900 1.270775
343.701900 3.795185
343.915800 3.793022
344.129700 0.927159
344.343700 1.555290
344.557700 3.886829
344.771700 3.809694
344.985700 2.312442
345.199700 3.834484
345.413700 1.170926
345.627700 3.783332
345.841800 1.372210
346.055900 1.454450
346.269900 0.932634
346.484000 3.898615
346.698100 1.224713
346.912300 1.165494
347.126400 0.737220
347.340600 3.899164
347.554700 3.883264
347.768900 1.721969
347.983100 1.050520
348.197300 3.889246
348.411500 1.382560
348.625700 3.866760
348.840000 3.898615
349.054200 0.903657
349.268500 1.182774
349.482800 0.707025
349.697100 0.857551
349.911400 3.877832
350.125700 1.225726
350.340000 0.898455
350.554400 3.966001
350.768700 3.912806
350.983100 1.449473
351.197500 3.889246
351.411900 1.017358
351.626300 3.954918
351.840700 1.526869
352.055200 3.931966
352.269600 3.959471
352.484100 1.786499
352.698600 1.521725
352.913100 3.896857
353.127600 1.370099
353.342100 3.948266
353.556600 1.103176
353.771200 1.304243
353.985800 1.623497
354.200300 3.930898
354.414900 3.981093
354.629500 3.907143
354.844100 1.393300
355.058800 1.749162
355.273400 1.807016
355.488100 3.989138
355.702700 3.991448
355.917400 1.138890
356.132100 4.015527
356.346800 3.982000
356.561500 0.895461
356.776300 3.974327
356.991000 0.771658
357.205800 3.987264
357.420600 1.096665
357.635300 1.661899
357.850100 1.618944
358.065000 1.088845
358.279800 1.757832
358.494600 3.959995
358.709500 1.368441
358.924300 3.975799
359.139200 1.197231
359.354100 3.988202
359.569000 4.007534
359.783900 1.302419
359.998900 3.957464
360.213800 0.599001
360.428800 4.072617
360.643800 0.986862
360.858700 1.943913
361.073700 4.040048
361.288800 1.106131
361.503800 4.026452
361.718800 2.076118
361.933900 1.431832
362.148900 4.016866
362.364000 3.994713
362.579100 0.983302
362.794200 4.002986
363.009300 4.072250
363.224500 4.031206
363.439600 2.745527
363.654800 4.034989
363.869900 0.933693
364.085100 4.019947
364.300300 2.218290
364.515500 4.049102
364.730800 1.840129
364.946000 2.038574
365.161200 4.048325
365.376500 2.484300
365.591800 2.135726
365.807100 4.020403
366.022400 4.056447
366.237700 1.678348
366.453000 1.304315
366.668400 1.261360
366.883700 4.063634
367.099100 4.077622
367.314500 1.063540
367.529900 4.111531
367.745300 1.286663
367.960700 4.089375
368.176100 4.093071
368.391600 1.155398
368.607000 1.665957
368.822500 4.111901
369.038000 4.150173
369.253500 4.100405
369.469000 1.295706
369.684500 4.136974
369.900100 4.150787
370.115600 4.067926
370.331200 1.151395
370.546800 4.104009
370.762400 1.174137
370.978000 4.107990
371.193600 1.262366
371.409200 4.124798
371.624900 4.160709
371.840500 4.181129
372.056200 4.129561
372.271900 4.101128
372.487600 1.064240
372.703300 4.129915
372.919000 4.120278
373.134800 4.137671
373.350500 2.036725
373.566300 4.154637
373.782000 4.160709
373.997800 4.169498
374.213600 4.167937
374.429400 1.253270
374.645300 2.285828
374.861100 4.167317
375.077000 4.192735
375.292800 4.182329
375.508700 1.659573
375.724600 4.210586
375.940500 1.204725
376.156400 1.580017
376.372400 4.242367
376.588300 2.201633
376.804300 4.234720
377.020300 4.247581
377.236200 1.343983
377.452200 1.484487
377.668200 1.315167
377.884300 4.260358
378.100300 4.253265
378.316400 4.291879
378.532400 4.271028
378.748500 4.301356
378.964600 1.591467
379.180700 4.308394
379.396800 4.318189
379.612900 2.999108
379.829100 4.308394
380.045200 4.285760
380.261400 1.293563
380.477600 4.319085
380.693800 1.780991
380.910000 2.739078
381.126200 4.287174
381.342400 1.440290
381.558700 1.139189
381.774900 1.374264
381.991200 0.831123
382.207500 1.846320
382.423800 1.459385
382.640100 1.873206
382.856400 4.341336
383.072800 4.319502
383.289100 4.351042
383.505500 1.480545
383.721900 1.336762
383.938200 1.291418
384.154600 4.345099
384.371100 2.017632
384.587500 1.012132
384.803900 2.144173
385.020400 1.601161
385.236800 1.528317
385.453300 3.095555
385.669800 4.340702
385.886300 1.481076
386.102800 1.173164
386.319400 4.354512
386.535900 1.529988
386.752500 1.392946
386.969000 1.703031
387.185600 1.199560
387.402200 1.277339
387.618800 1.225641
387.835500 1.128012
388.052100 1.149377
388.268700 1.275642
388.485400 1.560775
388.702100 1.335364
388.918800 1.006531
389.135500 1.205142
389.352200 0.955869
389.568900 1.035148
389.785600 0.905539
390.002400 1.121796
390.219200 0.844016
390.435900 1.127979
390.652700 1.029523
390.869500 0.941626
391.086300 1.030745
391.303200 0.823469
391.520000 0.753878
391.736900 0.710136
391.953700 0.841326
392.170600 0.782459
392.387500 0.908550
392.604400 0.817024
392.821300 0.772614
393.038300 0.769740
393.255200 0.686246
393.472200 0.723073
393.689100 0.658136
393.906100 0.742015
394.123100 0.625601
394.340100 0.556640
394.557200 0.571045
394.774200 0.656158
394.991200 0.534160
395.208300 0.548501
395.425400 0.553445
395.642500 0.536707
395.859600 0.525484
396.076700 0.532923
396.293800 0.530854
396.510900 0.643017
396.728100 0.469875
396.945300 0.552094
397.162400 0.467306
397.379600 0.432795
397.596800 0.494666
397.814000 0.514938
398.031300 0.446939
398.248500 0.494589
398.465800 0.412187
398.683000 0.345621
398.900300 0.433084
399.117600 0.438868
399.334900 0.415503
399.552200 0.413873
399.769600 0.343789
399.986900 0.387269
400.204300 0.344381
400.421600 0.364862
400.639000 0.338445
400.856400 0.362115
401.073800 0.321208
401.291200 0.387961
401.508700 0.345927
401.726100 0.378534
401.943600 0.305679
402.161000 0.307357
402.378500 0.322200
402.596000 0.366019
402.813500 0.333086
403.031000 0.320259
403.248600 0.329945
403.466100 0.291958
403.683700 0.302131
403.901300 0.320283
404.118900 0.290106
404.336500 0.266785
404.554100 0.292222
404.771700 0.274124
404.989300 0.303699
405.207000 0.290424
405.424600 0.244577
405.642300 0.305386
405.860000 0.260686
406.077700 0.278372
406.295400 0.304391
406.513100 0.276888
406.730900 0.254246
406.948600 0.234842
407.166400 0.241827
407.384200 0.227731
407.602000 0.249287
407.819800 0.258207
408.037600 0.276275
408.255400 0.251712
408.473300 0.231673
408.691100 0.221302
408.909000 0.235015
409.126900 0.242485
409.344800 0.256465
409.562700 0.201804
409.780600 0.255346
409.998500 0.237543
410.216500 0.235474
410.434400 0.231209
410.652400 0.220248
410.870400 0.234844
411.088400 0.212611
411.306400 0.221710
411.524400 0.236795
411.742400 0.154414
411.960500 0.235959
412.178500 0.197982
412.396600 0.163363
412.614700 0.169133
412.832800 0.195121
413.050900 0.179883
413.269000 0.209854
413.487100 0.215356
413.705300 0.219220
413.923400 0.221555
414.141600 0.204842
414.359800 0.194965
414.578000 0.160637
414.796200 0.193543
415.014400 0.235728
415.232600 0.164869
415.450900 0.202753
415.669200 0.181610
415.887400 0.205713
416.105700 0.232796
416.324000 0.222660
416.542300 0.195187
416.760600 0.168588
416.979000 0.209311
417.197300 0.177813
417.415700 0.194093
417.634100 0.197303
417.852400 0.211456
418.070800 0.170503
418.289300 0.197154
418.507700 0.183096
418.726100 0.167860
418.944600 0.150663
419.163000 0.184666
419.381500 0.198326
419.600000 0.182009
419.818500 0.201293
420.037000 0.183545
420.255500 0.184161
420.474100 0.249698
420.692600 0.188934
420.911200 0.179266
421.129800 0.211009
421.348300 0.217207
421.566900 0.170507
421.785600 0.172890
422.004200 0.212954
422.222800 0.186244
422.441500 0.209072
422.660100 0.172091
422.878800 0.217498
423.097500 0.176846
423.316200 0.181264
423.534900 0.192838
423.753600 0.234798
423.972400 0.221929
424.191100 0.212909
424.409900 0.205695
424.628700 0.239106
424.847500 0.193959
425.066300 0.217688
425.285100 0.210989
425.503900 0.206981
425.722800 0.204802
425.941600 0.192520
426.160500 0.225275
426.379300 0.194250
426.598200 0.219178
426.817100 0.204419
427.036100 0.216126
427.255000 0.202694
427.473900 0.191109
427.692900 0.244672
427.911800 0.199616
428.130800 0.205681
428.349800 0.231697
428.568800 0.199065
428.787800 0.190859
429.006800 0.213323
429.225900 0.198533
429.444900 0.220507
429.664000 0.193215
429.883100 0.223434
430.102200 0.212865
430.321300 0.253955
430.540400 0.204030
430.759500 0.212040
430.978700 0.235720
431.197800 0.224862
431.417000 0.203677
431.636200 0.202647
431.855300 0.198004
432.074500 0.221703
432.293800 0.236113
432.513000 0.265959
432.732200 0.225643
432.951500 0.224111
433.170700 0.243230
433.390000 0.234593
433.609300 0.275755
433.828600 0.237269
434.047900 0.249992
434.267300 0.235545
434.486600 0.225882
434.705900 0.242389
434.925300 0.268174
435.144700 0.219069
435.364100 0.238404
435.583500 0.262525
435.802900 0.270774
436.022300 0.241600
436.241800 0.266988
436.461200 0.255972
436.680700 0.254949
436.900100 0.228512
437.119600 0.235871
437.339100 0.251042
437.558600 0.292191
437.778200 0.251225
437.997700 0.247140
438.217300 0.265513
438.436800 0.241785
438.656400 0.279792
438.876000 0.260414
439.095600 0.257052
439.315200 0.298959
439.534800 0.276508
439.754500 0.257648
439.974100 0.296469
440.193800 0.279541
440.413500 0.278614
440.633100 0.275119
440.852800 0.304723
441.072500 0.301568
441.292300 0.307560
441.512000 0.264216
441.731800 0.298513
441.951500 0.276114
442.171300 0.304134
442.391100 0.298291
442.610900 0.310907
442.830700 0.270146
443.050500 0.301382
443.270300 0.307386
443.490200 0.293935
443.710100 0.334393
443.929900 0.297008
444.149800 0.305716
444.369700 0.307549
444.589600 0.278593
444.809500 0.285657
445.029500 0.344128
445.249400 0.318902
445.469400 0.305592
445.689400 0.314111
445.909300 0.326399
446.129300 0.334630
446.349300 0.310936
446.569400 0.373038
446.789400 0.348508
447.009400 0.344735
447.229500 0.309875
447.449600 0.328143
447.669600 0.346746
447.889700 0.337792
448.109800 0.323358
448.330000 0.343965
448.550100 0.374886
448.770200 0.333447
448.990400 0.328463
449.210600 0.374860
449.430700 0.338602
449.650900 0.351877
449.871100 0.352465
450.091400 0.375530
450.311600 0.403509
450.531800 0.389259
450.752100 0.332871
450.972400 0.348772
451.192600 0.379288
451.412900 0.400638
451.633200 0.348247
451.853500 0.392666
452.073900 0.370934
452.294200 0.365114
452.514600 0.354417
452.734900 0.340410
452.955300 0.361674
453.175700 0.416366
453.396100 0.421126
453.616500 0.393656
453.836900 0.395608
454.057400 0.389913
454.277800 0.417900
454.498300 0.420523
454.718800 0.413313
454.939300 0.437770
455.159700 0.438967
455.380300 0.406216
455.600800 0.406675
455.821300 0.418707
456.041900 0.459908
456.262400 0.422788
456.483000 0.430689
456.703600 0.484539
456.924200 0.427772
457.144800 0.488916
457.365400 0.468602
457.586000 0.459503
457.806700 0.504447
458.027400 0.490278
458.248000 0.423573
458.468700 0.512078
458.689400 0.468827
458.910100 0.497003
459.130800 0.511683
459.351600 0.457845
459.572300 0.472307
459.793100 0.491782
460.013800 0.503418
460.234600 0.553791
460.455400 0.479260
460.676200 0.492197
460.897000 0.524329
461.117800 0.564852
461.338700 0.509371
461.559500 0.498856
461.780400 0.504324
462.001300 0.565223
462.222200 0.504601
462.443100 0.523824
462.664000 0.579702
462.884900 0.491215
463.105900 0.475410
463.326800 0.552383
463.547800 0.607401
463.768700 0.536114
463.989700 0.556762
464.210700 0.520087
464.431700 0.553214
464.652800 0.555318
464.873800 0.601990
465.094800 0.551127
465.315900 0.591891
465.537000 0.598505
465.758100 0.637582
465.979200 0.603308
466.200300 0.648375
466.421400 0.574748
466.642500 0.666358
466.863700 0.590319
467.084800 0.628905
467.306000 0.609165
467.527200 0.638170
467.748400 0.601342
467.969600 0.647440
468.190800 0.640802
468.412000 0.587351
468.633300 0.626073
468.854500 0.650763
469.075800 0.702951
469.297000 0.648014
469.518300 0.698533
469.739600 0.746512
469.961000 0.650789
470.182300 0.663142
470.403600 0.664396
470.625000 0.681275
470.846300 0.706740
471.067700 0.706456
471.289100 0.737536
471.510500 0.698483
471.731900 0.692820
471.953300 0.769702
472.174800 0.621933
472.396200 0.722244
472.617700 0.756193
472.839100 0.706850
473.060600 0.735778
473.282100 0.726569
473.503600 0.790358
473.725100 0.792240
473.946700 0.695950
474.168200 0.722836
474.389800 0.755207
474.611300 0.826615
474.832900 0.740514
475.054500 0.822833
475.276100 0.712479
475.497700 0.803417
475.719300 0.800756
475.941000 0.846735
476.162600 0.816687
476.384300 0.837310
476.606000 0.768620
476.827700 0.814227
477.049400 0.817133
477.271100 0.771484
477.492800 0.859039
477.714500 0.812160
477.936300 0.859457
478.158000 0.975471
478.379800 0.818694
478.601600 0.905719
478.823400 0.859397
479.045200 0.857571
479.267000 0.825807
479.488800 0.952111
479.710700 0.882166
479.932500 0.880473
480.154400 0.892124
480.376300 0.893639
480.598200 0.784928
480.820100 0.983520
481.042000 0.994451
481.263900 0.996147
481.485900 0.899840
481.707800 1.084114
481.929800 0.896219
482.151700 1.052050
482.373700 0.846848
482.595700 1.019254
482.817700 0.970582
483.039800 1.001935
483.261800 1.004874
483.483800 0.989257
483.705900 0.944144
483.928000 0.991080
484.150100 0.962764
484.372100 0.912441
484.594300 1.076390
484.816400 0.920764
485.038500 0.975042
485.260600 1.101730
485.482800 0.966978
485.705000 1.056227
485.927100 1.007512
486.149300 1.024202
486.371500 1.041797
486.593700 1.023925
486.816000 0.963739
487.038200 1.060480
487.260500 1.043017
487.482700 1.052469
487.705000 1.089363
487.927300 1.062766
488.149600 1.011209
488.371900 1.003192
488.594200 0.889704
488.816500 1.183119
489.038900 1.144551
489.261200 1.238423
489.483600 0.963533
489.706000 0.998201
489.928400 1.000914
490.150800 1.090174
490.373200 1.156121
490.595600 1.165752
490.818000 1.047690
491.040500 1.137750
491.263000 0.986275
491.485400 1.185648
491.707900 1.260450
491.930400 1.322485
492.152900 1.200955
492.375500 1.129160
492.598000 1.112005
492.820500 1.246530
493.043100 1.205676
493.265700 1.199076
493.488200 1.071430
493.710800 1.160059
493.933400 1.158286
494.156100 1.058004
494.378700 1.215673
494.601300 1.109844
494.824000 1.076768
495.046600 1.213668
495.269300 1.102625
495.492000 1.355411
495.714700 1.269326
495.937400 1.251095
496.160100 1.194763
496.382900 1.325968
496.605600 1.207643
496.828400 1.350620
497.051100 1.109992
497.273900 1.696775
497.496700 1.120077
497.719500 1.255539
497.942300 1.058772
498.165200 1.339734
498.388000 1.488161
498.610900 1.161250
498.833700 1.198415
499.056600 1.201314
499.279500 1.303483
499.502400 1.288746
499.725300 1.140105
499.948200 1.778806
500.171200 1.264355
500.394100 1.441919
500.617100 1.052642
500.840000 1.316830
501.063000 1.312947
501.286000 1.397115
501.509000 1.307752
501.732000 1.343864
501.955100 1.289876
502.178100 1.343084
502.401200 1.243183
502.624200 1.423917
502.847300 1.256312
503.070400 1.329654
503.293500 1.396154
503.516600 1.319983
503.739700 1.444977
503.962800 1.112203
504.186000 1.150150
504.409200 1.405219
504.632300 1.108458
504.855500 1.615449
505.078700 1.313814
505.301900 1.656349
505.525100 1.317996
505.748300 1.334409
505.971600 1.371436
506.194800 1.179651
506.418100 1.161229
506.641400 1.280348
506.864700 1.271782
507.088000 1.268118
507.311300 1.611658
507.534600 1.365048
507.757900 1.296049
507.981300 1.303785
508.204600 1.191044
508.428000 1.358955
508.651400 1.297371
508.874800 1.340163
509.098200 1.230493
509.321600 1.223514
509.545000 1.333949
509.768500 1.139707
509.991900 1.208026
510.215400 1.344548
510.438800 1.397366
510.662300 1.231623
510.885800 1.365332
511.109300 1.476337
511.332900 1.405936
511.556400 1.479797
511.779900 1.332843
512.003500 1.217832
512.227000 1.236040
512.450600 1.331514
512.674200 1.139424
512.897800 1.938208
513.121400 1.157520
513.345100 1.234907
513.568700 1.254705
513.792300 1.105789
514.016000 1.623730
514.239700 1.430675
514.463400 1.517273
514.687100 1.230260
514.910800 1.225156
515.134500 1.426731
515.358200 1.329257
515.581900 1.151499
515.805700 1.262096
516.029500 1.287892
516.253200 1.145886
516.477000 1.258333
516.700800 1.339330
516.924600 1.378563
517.148500 1.043875
517.372300 1.203441
517.596100 1.082121
517.820000 1.496839
518.043900 1.169869
518.267700 1.255493
518.491600 1.173934
518.715500 1.346796
518.939500 1.124758
519.163400 1.218870
519.387300 1.343219
519.611300 1.148441
519.835200 0.977564
520.059200 1.272243
520.283200 2.128217
520.507200 1.346663
520.731200 1.334564
520.955200 1.299751
521.179200 1.390845
521.403300 1.076538
521.627300 1.196326
521.851400 1.139595
522.075500 1.168264
522.299600 1.100418
522.523700 1.138010
522.747800 1.043225
522.971900 1.104568
523.196000 1.093332
523.420200 1.062449
523.644300 1.112143
523.868500 1.056815
524.092700 1.007539
524.316900 1.257578
524.541100 1.000932
524.765300 1.108828
524.989500 1.330518
525.213800 1.037759
525.438000 1.343187
525.662300 1.183967
525.886500 1.006705
526.110800 1.211339
526.335100 1.066404
526.559400 1.217129
526.783700 0.884375
527.008100 0.914389
527.232400 1.170154
527.456800 0.921303
527.681100 1.086824
527.905500 0.979061
528.129900 1.113792
528.354300 1.151006
528.578700 1.120104
528.803100 1.108480
529.027600 0.924065
529.252000 1.069747
529.476500 0.984992
529.700900 0.903833
529.925400 0.895739
530.149900 1.081596
530.374400 0.889984
530.598900 1.055949
530.823400 1.068759
531.048000 1.074083
531.272500 0.941564
531.497100 0.880816
531.721700 0.929840
531.946200 0.850998
532.170800 0.940018
532.395400 0.940364
532.620000 0.925547
532.844700 0.893805
533.069300 0.908448
533.294000 0.835821
533.518600 0.763042
533.743300 0.964694
533.968000 0.888300
534.192700 0.830704
534.417400 0.815710
534.642100 0.860498
534.866800 0.850912
535.091600 0.937416
535.316300 0.890907
535.541100 0.723818
535.765900 0.829385
535.990700 0.878259
536.215500 0.868392
536.440300 0.816800
536.665100 0.839722
536.889900 0.769760
537.114800 0.762537
537.339600 0.764483
537.564500 0.804398
537.789400 0.698939
538.014300 0.721241
538.239200 0.812250
538.464100 0.738521
538.689000 0.735854
538.913900 0.780436
539.138900 0.732032
539.363800 0.647148
539.588800 0.737382
539.813800 0.701185
540.038800 0.739143
540.263800 0.682721
540.488800 0.739745
540.713800 0.708901
540.938900 0.757350
541.163900 0.715181
541.389000 0.672419
541.614000 0.632826
541.839100 0.684125
542.064200 0.679374
542.289300 0.679386
542.514400 0.672727
542.739600 0.698091
542.964700 0.637673
543.189900 0.627767
543.415000 0.656796
543.640200 0.623811
543.865400 0.599852
544.090600 0.604516
544.315800 0.642249
544.541000 0.657162
544.766200 0.578580
544.991500 0.589338
545.216700 0.596667
545.442000 0.564469
545.667300 0.641146
545.892600 0.538673
546.117900 0.614273
546.343200 0.565066
546.568500 0.572119
546.793800 0.542152
547.019200 0.607018
547.244500 0.546890
547.469900 0.557628
547.695300 0.535446
547.920600 0.529858
548.146000 0.521272
548.371500 0.531432
548.596900 0.490740
548.822300 0.516290
549.047800 0.539474
549.273200 0.485408
549.498700 0.454989
549.724200 0.505930
549.949600 0.530198
550.175100 0.451225
550.400700 0.478947
550.626200 0.454197
550.851700 0.458765
551.077300 0.492001
551.302800 0.442145
551.528400 0.432093
551.754000 0.470623
551.979600 0.435654
552.205200 0.412174
552.430800 0.462325
552.656400 0.433121
552.882000 0.458516
553.107700 0.414407
553.333300 0.436311
553.559000 0.427963
553.784700 0.447457
554.010400 0.401531
554.236100 0.396631
554.461800 0.396067
554.687500 0.399869
554.913200 0.417063
555.139000 0.393231
555.364800 0.403674
555.590500 0.410402
555.816300 0.380090
556.042100 0.381999
556.267900 0.399179
556.493700 0.384303
556.719500 0.353496
556.945400 0.366204
557.171200 0.348578
557.397100 0.383485
557.623000 0.352645
557.848800 0.375218
558.074700 0.372782
558.300600 0.338428
558.526600 0.342500
558.752500 0.325293
558.978400 0.324447
559.204400 0.315643
559.430300 0.307564
559.656300 0.306805
559.882300 0.307099
560.108300 0.318905
560.334300 0.274211
560.560300 0.323204
560.786300 0.305835
561.012400 0.279780
561.238400 0.276683
561.464500 0.294296
561.690500 0.312727
561.916600 0.292315
562.142700 0.267537
562.368800 0.308744
562.594900 0.295727
562.821100 0.301907
563.047200 0.314032
563.273300 0.270531
563.499500 0.262190
563.725700 0.293315
563.951900 0.267056
564.178100 0.239635
564.404300 0.257390
564.630500 0.278106
564.856700 0.273080
565.082900 0.251569
565.309200 0.260732
565.535500 0.252047
565.761700 0.221976
565.988000 0.261193
566.214300 0.212291
566.440600 0.237860
566.666900 0.224365
566.893200 0.275042
567.119600 0.231057
567.345900 0.230858
567.572300 0.237756
567.798700 0.228727
568.025000 0.235181
568.251400 0.222621
568.477800 0.211655
568.704300 0.210476
568.930700 0.215846
569.157100 0.217153
569.383600 0.232670
569.610000 0.199934
569.836500 0.218039
570.063000 0.204517
570.289500 0.225016
570.516000 0.211405
570.742500 0.200575
570.969000 0.204459
571.195600 0.212075
571.422100 0.204919
571.648700 0.205518
571.875200 0.199608
572.101800 0.189528
572.328400 0.199441
572.555000 0.204688
572.781600 0.205461
573.008200 0.207239
573.234900 0.196291
573.461500 0.190198
573.688200 0.199860
573.914900 0.194842
574.141500 0.184731
574.368200 0.187449
574.594900 0.183587
574.821600 0.174740
575.048400 0.181603
575.275100 0.181083
575.501800 0.185274
575.728600 0.175188
575.955400 0.180590
576.182100 0.183586
576.408900 0.176972
576.635700 0.180992
576.862600 0.167908
577.089400 0.166092
577.316200 0.173280
577.543100 0.178288
577.769900 0.166692
577.996800 0.154999
578.223700 0.164867
578.450500 0.151207
578.677400 0.168834
578.904400 0.166119
579.131300 0.163307
579.358200 0.161671
579.585100 0.158974
579.812100 0.162165
580.039100 0.159994
580.266000 0.138347
580.493000 0.154200
580.720000 0.144905
580.947000 0.153164
581.174100 0.142532
581.401100 0.138697
581.628100 0.140712
581.855200 0.136437
582.082200 0.146452
582.309300 0.142647
582.536400 0.136306
582.763500 0.134227
582.990600 0.127994
583.217700 0.138685
583.444900 0.140268
583.672000 0.140919
583.899100 0.142459
584.126300 0.130553
584.353500 0.131077
584.580700 0.138514
584.807900 0.151514
585.035100 0.136400
585.262300 0.134286
585.489500 0.136201
585.716700 0.132321
585.944000 0.133415
586.171300 0.122136
586.398500 0.133211
586.625800 0.136150
586.853100 0.126975
587.080400 0.123710
587.307700 0.111942
587.535000 0.123132
587.762400 0.120784
587.989700 0.110388
588.217100 0.136179
588.444500 0.124853
588.671800 0.118677
588.899200 0.115775
589.126600 0.122282
589.354000 0.132553
589.581500 0.124149
589.808900 0.134185
590.036300 0.124361
590.263800 0.129089
590.491300 0.110965
590.718700 0.110656
590.946200 0.129046
591.173700 0.134439
591.401200 0.135061
591.628800 0.116121
591.856300 0.113653
592.083800 0.115195
592.311400 0.116250
592.538900 0.107146
592.766500 0.112457
592.994100 0.120138
593.221700 0.115483
593.449300 0.104791
593.676900 0.096404
593.904600 0.113212
594.132200 0.102696
594.359800 0.112510
594.587500 0.113655
594.815200 0.104210
595.042900 0.117663
595.270500 0.114238
595.498300 0.110771
595.726000 0.115768
595.953700 0.119627
596.181400 0.115690
596.409200 0.117138
596.636900 0.104651
596.864700 0.112643
597.092500 0.111783
597.320300 0.121737
597.548100 0.118350
597.775900 0.109602
598.003700 0.118380
598.231500 0.123562
598.459400 0.121287
598.687200 0.115326
598.915100 0.108693
599.143000 0.105575
599.370900 0.118133
599.598800 0.114049
599.826700 0.103367
600.054600 0.111604
600.282500 0.109680
600.510500 0.105876
600.738400 0.095598
600.966400 0.104123
601.194400 0.094853
601.422300 0.110685
601.650300 0.099380
601.878300 0.101014
602.106400 0.101957
602.334400 0.111387
602.562400 0.101772
602.790500 0.099782
603.018500 0.101964
603.246600 0.101502
603.474700 0.098196
603.702800 0.098886
603.930900 0.118174
604.159000 0.111080
604.387100 0.118168
604.615200 0.098346
604.843400 0.107349
605.071500 0.102992
605.299700 0.097592
605.527900 0.092740
605.756100 0.097083
605.984300 0.093147
606.212500 0.084345
606.440700 0.079426
606.668900 0.090069
606.897200 0.091256
607.125400 0.101487
607.353700 0.083342
607.581900 0.096625
607.810200 0.086644
608.038500 0.098225
608.266800 0.082851
608.495100 0.089049
608.723500 0.077813
608.951800 0.103958
609.180100 0.086838
609.408500 0.093808
609.636900 0.092333
609.865300 0.106146
610.093600 0.090768
610.322000 0.100934
610.550500 0.095692
610.778900 0.094935
611.007300 0.094728
611.235700 0.096082
611.464200 0.087896
611.692700 0.099899
611.921100 0.090757
612.149600 0.097469
612.378100 0.090724
612.606600 0.089882
612.835100 0.093825
613.063700 0.094900
613.292200 0.094667
613.520800 0.085504
613.749300 0.095889
613.977900 0.094076
614.206500 0.086694
614.435100 0.099376
614.663700 0.094038
614.892300 0.095374
615.120900 0.082097
615.349500 0.090127
615.578200 0.086156
615.806800 0.081355
616.035500 0.087366
616.264200 0.101933
616.492900 0.103149
616.721600 0.099633
616.950300 0.087993
617.179000 0.086925
617.407700 0.096166
617.636500 0.077544
617.865200 0.080232
618.094000 0.098202
618.322700 0.088618
618.551500 0.095029
618.780300 0.082816
619.009100 0.087170
619.237900 0.095922
619.466700 0.092653
619.695600 0.102757
619.924400 0.074954
620.153300 0.091497
620.382100 0.095022
620.611000 0.063597
620.839900 0.085902
621.068800 0.084736
621.297700 0.087993
621.526600 0.081269
621.755600 0.087819
621.984500 0.083091
622.213500 0.091156
622.442400 0.078617
622.671400 0.082430
622.900400 0.092992
623.129400 0.102824
623.358400 0.081219
623.587400 0.092002
623.816400 0.079128
624.045400 0.076918
624.274500 0.095631
624.503500 0.082881
624.732600 0.079304
624.961700 0.077240
625.190800 0.097029
625.419900 0.062091
625.649000 0.080544
625.878100 0.078380
626.107200 0.075490
626.336400 0.082193
626.565500 0.087193
626.794700 0.098335
627.023800 0.070076
627.253000 0.099634
627.482200 0.094385
627.711400 0.069553
627.940600 0.073268
628.169800 0.093547
628.399100 0.088308
628.628300 0.073742
628.857600 0.068231
629.086800 0.081447
629.316100 0.084822
629.545400 0.063146
629.774700 0.083221
630.004000 0.102648
630.233300 0.082664
630.462600 0.074264
630.692000 0.080768
630.921300 0.114101
631.150700 0.092060
631.380100 0.091109
631.609400 0.085539
631.838800 0.088069
632.068200 0.072161
632.297600 0.080887
632.527100 0.092878
632.756500 0.090893
632.985900 0.078723
633.215400 0.076904
633.444800 0.073038
633.674300 0.072536
633.903800 0.067555
634.133300 0.067427
634.362800 0.080988
634.592300 0.078607
634.821800 0.070296
635.051400 0.108927
635.280900 0.092934
635.510500 0.060994
635.740000 0.076476
635.969600 0.079221
636.199200 0.078492
636.428800 0.080477
636.658400 0.079824
636.888000 0.058362
637.117700 0.074855
637.347300 0.061213
637.577000 0.078061
637.806600 0.095588
638.036300 0.062647
638.266000 0.080550
638.495700 0.105455
638.725400 0.087684
638.955100 0.099939
639.184800 0.063966
639.414500 0.095539
639.644300 0.089743
639.874000 0.074943
640.103800 0.090745
640.333600 0.064147
640.563300 0.045912
640.793100 0.064343
641.022900 0.075394
641.252800 0.078578
641.482600 0.110021
641.712400 0.067801
641.942300 0.069802
642.172100 0.062505
642.402000 0.078804
642.631900 0.077594
642.861700 0.092970
643.091600 0.112631
643.321600 0.089071
643.551500 0.048908
643.781400 0.075502
644.011300 0.072339
644.241300 0.061188
644.471200 0.061670
644.701200 0.067446
644.931200 0.123483
645.161200 0.064373
645.391200 0.078103
645.621200 0.075607
645.851200 0.049266
646.081200 0.060333
646.311300 0.113366
646.541300 0.090076
646.771400 0.074786
647.001500 0.073050
647.231600 0.080949
647.461600 0.087066
647.691800 0.072754
647.921900 0.068269
648.152000 0.044990
648.382100 0.072529
648.612300 0.113723
648.842400 0.125543
649.072600 0.100206
649.302800 0.033607
649.532900 0.089632
649.763100 0.077709
649.993300 0.057695
650.223600 0.091685
650.453800 0.062022
650.684000 0.069861
650.914300 0.073280
651.144500 0.077356
651.374800 0.107366
651.605100 0.085916
651.835400 0.089872
652.065700 0.064532
652.296000 0.060983
652.526300 0.089266
652.756600 0.069762
652.987000 0.093417
653.217300 0.068253
653.447700 0.106378
653.678000 0.071522
653.908400 0.072981
654.138800 0.094630
654.369200 0.075574
654.599600 0.113658
654.830000 0.078040
655.060500 0.141084
655.290900 0.162010
655.521300 0.141891
655.751800 0.100402
655.982300 0.002910
656.212800 0.000974
656.443300 0.001458
656.673800 0.001232
656.904300 0.041761
657.134800 0.095262
657.365300 0.094097
657.595900 0.094354
657.826400 0.091329
658.057000 0.099607
658.287500 0.103056
658.518100 0.095543
658.748700 0.091872
658.979300 0.114721
659.209900 0.133368
659.440600 0.155621
659.671200 0.196740
659.901800 0.185236
660.132500 0.144443
660.363200 0.130240
660.593800 0.152340
660.824500 0.086977
661.055200 0.079813
661.285900 0.122703
661.516600 0.083258
661.747400 0.090085
661.978100 0.126529
662.208800 0.113561
662.439600 0.107904
662.670400 0.094877
662.901100 0.115941
663.131900 0.074329
663.362700 0.086426
663.593500 0.071902
663.824300 0.110816
664.055200 0.103118
664.286000 0.067294
664.516800 0.074348
664.747700 0.115670
664.978600 0.073866
665.209400 0.072274
665.440300 0.092301
665.671200 0.089047
665.902100 0.104189
666.133000 0.105586
666.364000 0.039804
666.594900 0.092871
666.825900 0.091018
667.056800 0.115505
667.287800 0.048458
667.518800 0.117886
667.749700 0.064891
667.980700 0.108870
668.211700 0.087169
668.442800 0.088357
668.673800 0.082231
668.904800 0.031775
669.135900 0.111798
669.366900 0.086896
669.598000 0.041297
669.829100 0.046743
670.060200 0.091475
670.291300 0.103923
670.522400 0.074119
670.753500 0.072230
670.984600 0.093746
671.215700 0.121927
671.446900 0.132356
671.678100 0.078089
671.909200 0.074407
672.140400 0.064500
672.371600 0.066451
672.602800 0.054101
672.834000 0.055651
673.065200 0.068335
673.296400 0.057322
673.527700 0.080398
673.758900 0.092483
673.990200 0.068089
674.221400 0.117179
674.452700 0.071995
674.684000 0.065756
674.915300 0.094243
675.146600 0.107818
675.377900 0.103214
675.609300 0.086875
675.840600 0.104350
676.071900 0.122449
676.303300 0.071520
676.534700 0.048716
676.766100 0.071346
676.997400 0.061873
677.228800 0.069875
677.460200 0.106991
677.691700 0.110583
677.923100 0.103018
678.154500 0.083342
678.386000 0.085661
678.617400 0.037526
678.848900 0.073855
679.080400 0.089991
679.311900 0.085447
679.543400 0.063765
679.774900 0.077215
680.006400 0.118971
680.237900 0.066370
680.469400 0.087633
680.701000 0.064727
680.932500 0.067553
681.164100 0.090418
681.395700 0.078093
681.627300 0.094502
681.858900 0.068826
682.090500 0.101753
682.322100 0.061201
682.553700 0.082676
682.785400 0.047981
683.017000 0.084112
683.248700 0.100805
683.480300 0.049956
683.712000 0.050961
683.943700 0.086934
684.175400 0.064282
684.407100 0.077983
684.638800 0.069770
684.870500 0.076225
685.102300 0.072151
685.334000 0.080140
685.565800 0.099897
685.797500 0.090507
686.029300 0.058196
686.261100 0.112922
686.492900 0.069060
686.724700 0.102814
686.956500 0.056288
687.188300 0.089069
687.420200 0.103626
687.652000 0.077038
687.883800 0.048570
688.115700 0.075029
688.347600 0.069285
688.579500 0.076054
688.811400 0.070434
689.043300 0.084565
689.275200 0.082920
689.507100 0.075352
689.739000 0.080507
689.971000 0.070647
690.202900 0.071183
690.434900 0.086384
690.666900 0.085779
690.898800 0.071997
691.130800 0.103290
691.362800 0.091652
691.594800 0.086280
691.826900 0.088778
692.058900 0.105908
692.290900 0.090093
692.523000 0.089542
692.755000 0.100088
692.987100 0.068779
693.219200 0.065956
693.451300 0.091792
693.683400 0.109699
693.915500 0.087642
694.147600 0.077037
694.379700 0.082269
694.611900 0.095634
694.844000 0.085158
695.076200 0.057805
695.308300 0.082134
695.540500 0.121023
695.772700 0.070197
696.004900 0.084201
696.237100 0.098938
696.469300 0.048490
696.701600 0.085935
696.933800 0.103265
697.166000 0.062640
697.398300 0.100853
697.630600 0.085880
697.862800 0.089371
698.095100 0.116757
698.327400 0.060058
698.559700 0.079263
698.792000 0.069895
699.024300 0.066623
699.256700 0.068960
699.489000 0.081325
699.721400 0.118167
699.953700 0.069487
700.186100 0.056711
700.418500 0.098349
700.650900 0.110152
700.883300 0.075690
701.115700 0.121318
701.348100 0.103095
701.580600 0.106418
701.813000 0.102438
702.045400 0.071820
702.277900 0.086175
702.510400 0.102038
702.742900 0.064555
702.975300 0.087400
703.207800 0.084117
703.440300 0.093045
703.672900 0.131878
703.905400 0.052525
704.137900 0.091252
704.370500 0.092476
704.603000 0.115201
704.835600 0.080828
705.068200 0.015554
705.300800 0.112710
705.533400 0.134783
705.766000 0.057330
705.998600 0.094126
706.231200 0.101874
706.463800 0.081522
706.696500 0.077584
706.929100 0.094264
707.161800 0.052968
707.394500 0.078490
707.627200 0.080392
707.859900 0.110102
708.092600 0.098295
708.325300 0.074836
708.558000 0.079656
708.790700 0.077721
709.023500 0.083191
709.256200 0.086688
709.489000 0.074910
709.721700 0.062924
709.954500 0.088236
710.187300 0.055673
710.420100 0.089814
710.652900 0.071622
710.885700 0.061265
711.118600 0.085811
711.351400 0.058634
711.584200 0.087233
711.817100 0.056076
712.050000 0.066004
712.282800 0.087119
712.515700 0.090858
712.748600 0.084625
712.981500 0.088601
713.214400 0.102956
713.447400 0.087054
713.680300 0.075044
713.913200 0.076071
714.146200 0.072250
714.379100 0.050775
714.612100 0.069148
714.845100 0.060815
715.078100 0.075942
715.311100 0.054870
715.544100 0.095092
715.777100 0.051349
716.010200 0.076270
716.243200 0.043726
716.476200 0.076760
716.709300 0.075134
716.942400 0.051711
717.175400 0.114003
717.408500 0.105345
717.641600 0.081350
717.874700 0.090711
718.107800 0.078390
718.341000 0.090068
718.574100 0.079903
718.807200 0.089735
719.040400 0.087941
719.273600 0.089541
719.506700 0.102428
719.739900 0.093957
719.973100 0.049736
720.206300 0.057153
720.439500 0.085066
720.672700 0.091769
720.906000 0.062888
721.139200 0.062528
721.372500 0.091985
721.605700 0.078737
721.839000 0.099009
722.072300 0.079002
722.305500 0.098464
722.538800 0.087399
722.772100 0.071038
723.005500 0.097919
723.238800 0.073905
723.472100 0.054742
723.705500 0.112823
723.938800 0.074536
724.172200 0.087728
724.405600 0.085621
724.638900 0.104243
724.872300 0.062791
725.105700 0.121822
725.339100 0.082728
725.572600 0.074689
725.806000 0.089698
726.039400 0.062838
726.272900 0.070567
726.506300 0.069226
726.739800 0.129311
726.973300 0.071637
727.206800 0.066127
727.440300 0.084950
727.673800 0.074768
727.907300 0.060654
728.140800 0.088591
728.374300 0.083736
728.607900 0.063706
728.841400 0.084170
729.075000 0.080413
729.308600 0.086205
729.542100 0.091742
729.775700 0.068820
730.009300 0.079150
730.242900 0.076956
730.476600 0.114371
730.710200 0.083085
730.943800 0.098651
731.177500 0.097415
731.411100 0.082782
731.644800 0.092403
731.878500 0.071079
732.112200 0.094797
732.345800 0.079321
732.579500 0.112637
732.813300 0.090869
733.047000 0.076764
733.280700 0.085675
733.514500 0.090062
733.748200 0.113521
733.982000 0.137175
734.215700 0.078521
734.449500 0.099998
734.683300 0.084801
734.917100 0.078800
735.150900 0.084594
735.384700 0.096527
735.618500 0.096992
735.852400 0.080730
736.086200 0.093346
736.320100 0.076495
736.553900 0.102987
736.787800 0.079379
737.021700 0.074956
737.255600 0.092494
737.489500 0.081182
737.723400 0.063084
737.957300 0.082888
738.191200 0.068066
738.425200 0.077009
738.659100 0.103518
738.893100 0.054069
739.127100 0.109842
739.361000 0.096327
739.595000 0.091906
739.829000 0.069887
740.063000 0.074105
740.297000 0.085286
740.531000 0.060454
740.765100 0.068699
740.999100 0.082621
741.233200 0.074295
741.467200 0.092065
741.701300 0.041769
741.935400 0.072485
742.169500 0.071737
742.403600 0.094247
742.637700 0.085871
742.871800 0.056073
743.105900 0.060324
743.340000 0.073748
743.574200 0.064898
743.808300 0.057482
744.042500 0.034173
744.276700 0.097493
744.510800 0.055098
744.745000 0.070652
744.979200 0.120455
745.213400 0.078796
745.447700 0.083515
745.681900 0.095130
745.916100 0.107725
746.150400 0.087116
746.384600 0.105889
746.618900 0.060768
746.853200 0.083205
747.087400 0.071158
747.321700 0.090375
747.556000 0.065390
747.790300 0.086526
748.024700 0.065539
748.259000 0.099335
748.493300 0.084565
748.727700 0.100155
748.962000 0.104204
749.196400 0.091514
749.430800 0.127961
749.665200 0.045071
749.899500 0.096801
750.133900 0.072018
750.368400 0.095740
750.602800 0.120879
750.837200 0.088956
751.071700 0.083327
751.306100 0.092233
751.540600 0.098371
751.775000 0.108799
752.009500 0.059595
752.244000 0.072322
752.478500 0.077709
752.713000 0.078211
752.947500 0.080363
753.182000 0.102726
753.416600 0.062648
753.651100 0.117511
753.885600 0.112499
754.120200 0.073253
754.354800 0.085781
754.589400 0.110018
754.823900 0.088815
755.058500 0.084335
755.293100 0.082839
755.527800 0.075926
755.762400 0.089900
755.997000 0.072979
756.231700 0.093514
756.466300 0.093441
756.701000 0.079728
756.935600 0.082484
757.170300 0.085335
757.405000 0.085157
757.639700 0.063627
757.874400 0.085918
758.109100 0.097374
758.343800 0.085070
758.578600 0.062605
758.813300 0.078972
759.048100 0.088643
759.282800 0.074753
759.517600 0.089140
759.752400 0.099457
759.987200 0.088739
760.222000 0.072649
760.456800 0.073113
760.691600 0.097759
760.926400 0.082460
761.161300 0.067056
761.396100 0.082879
761.631000 0.083410
761.865800 0.102697
762.100700 0.096718
762.335600 0.093810
762.570500 0.064047
762.805400 0.072590
763.040300 0.074433
763.275200 0.080622
763.510100 0.088942
763.745000 0.098805
763.980000 0.076292
764.214900 0.064948
764.449900 0.086546
764.684900 0.073676
764.919800 0.078419
765.154800 0.071470
765.389800 0.083053
765.624800 0.093608
765.859900 0.054497
766.094900 0.052171
766.329900 0.062088
766.565000 0.072350
766.800000 0.067174
767.035100 0.065660
767.270100 0.107610
767.505200 0.065460
767.740300 0.079047
767.975400 0.053354
768.210500 0.088987
768.445600 0.083628
768.680800 0.078051
768.915900 0.107952
769.151000 0.096620
769.386200 0.075542
769.621400 0.066050
769.856500 0.108398
770.091700 0.089708
770.326900 0.107949
770.562100 0.080170
770.797300 0.069556
771.032500 0.079957
771.267700 0.060922
771.503000 0.082274
771.738200 0.090858
771.973500 0.055319
772.208700 0.083049
772.444000 0.097608
772.679300 0.059085
772.914600 0.088547
773.149900 0.054320
773.385200 0.083868
773.620500 0.082709
773.855800 0.088799
774.091100 0.085575
774.326500 0.088494
774.561800 0.100480
774.797200 0.072085
775.032600 0.126697
775.267900 0.038961
775.503300 0.097414
775.738700 0.092382
775.974100 0.118889
776.209500 0.067406
776.445000 0.068487
776.680400 0.075920
776.915800 0.063509
777.151300 0.076601
777.386800 0.088557
777.622200 0.093742
777.857700 0.060920
778.093200 0.102185
778.328700 0.053720
778.564200 0.070811
778.799700 0.031314
779.035200 0.069325
779.270700 0.052636
779.506300 0.092583
779.741800 0.068734
779.977400 0.067084
780.213000 0.074806
780.448500 0.078337
780.684100 0.067474
780.919700 0.116252
781.155300 0.047793
781.390900 0.068373
781.626500 0.075798
781.862200 0.078227
782.097800 0.118239
782.333500 0.096746
782.569100 0.062744
782.804800 0.071242
783.040500 0.069852
783.276100 0.072217
783.511800 0.083648
783.747500 0.052503
783.983200 0.092786
784.219000 0.094606
784.454700 0.075776
784.690400 0.115421
784.926200 0.121644
785.161900 0.133725
785.397700 0.081719
785.633500 0.075987
785.869200 0.073288
786.105000 0.076786
786.340800 0.091813
786.576600 0.071746
786.812400 0.085417
787.048300 0.131082
787.284100 0.112205
787.519900 0.061116
787.755800 0.066738
787.991700 0.076117
788.227500 0.071955
788.463400 0.059914
788.699300 0.071023
788.935200 0.086871
789.171100 0.077854
789.407000 0.096953
789.642900 0.073546
789.878900 0.090487
790.114800 0.072159
790.350700 0.069352
790.586700 0.088448
790.822700 0.081471
791.058600 0.105388
791.294600 0.097989
791.530600 0.049430
791.766600 0.086164
792.002600 0.075067
792.238700 0.056016
792.474700 0.092386
792.710700 0.104933
792.946800 0.087570
793.182800 0.075710
793.418900 0.073160
793.655000 0.084129
793.891000 0.093339
794.127100 0.077702
794.363200 0.092458
794.599300 0.082964
794.835500 0.060700
795.071600 0.096796
795.307700 0.103554
795.543900 0.055778
795.780000 0.141408
796.016200 0.099776
796.252300 0.069173
796.488500 0.084646
796.724700 0.125436
796.960900 0.103013
797.197100 0.117590
797.433300 0.053276
797.669500 0.097464
797.905800 0.105275
798.142000 0.083087
798.378300 0.122538
798.614500 0.100543
798.850800 0.098510
799.087100 0.071575
799.323300 0.086735
799.559600 0.083494
799.795900 0.074694
800.032200 0.088163
800.268600 0.118622
800.504900 0.055631
800.741200 0.073616
800.977600 0.075871
801.213900 0.129809
801.450300 0.140403
801.686700 0.089286
801.923000 0.134227
802.159400 0.133603
802.395800 0.100071
802.632200 0.094431
802.868600 0.090932
803.105100 0.038146
803.341500 0.083135
803.577900 0.079935
803.814400 0.068718
804.050800 0.051578
804.287300 0.098740
804.523800 0.087172
804.760300 0.115720
804.996800 0.074799
805.233300 0.065114
805.469800 0.117193
805.706300 0.119559
805.942800 0.096568
806.179400 0.048913
806.415900 0.096334
806.652500 0.093950
806.889000 0.138258
807.125600 0.117583
807.362200 0.095244
807.598800 0.108275
807.835400 0.075779
808.072000 0.105677
808.308600 0.090411
808.545200 0.087158
808.781800 0.091111
809.018500 0.118590
809.255100 0.108330
809.491800 0.071619
809.728400 0.071461
809.965100 0.055355
810.201800 0.091620
810.438500 0.031243
810.675200 0.067656
810.911900 0.117471
811.148600 0.078405
811.385300 0.081646
811.622100 0.116907
811.858800 0.089163
812.095600 0.037534
812.332300 0.060661
812.569100 0.020578
812.805900 0.147632
813.042700 0.118015
813.279500 0.102808
813.516300 0.099811
813.753100 0.073630
813.989900 0.171181
814.226700 0.158514
814.463600 0.115062
814.700400 0.069226
814.937300 0.067973
815.174200 0.069119
815.411000 0.056187
815.647900 0.014497
815.884800 0.112319
816.121700 0.105319
816.358600 0.111909
816.595500 0.094416
816.832400 0.053111
817.069400 0.088418
817.306300 0.074060
817.543300 0.080719
817.780200 0.052495
818.017200 0.125780
818.254200 0.154257
818.491200 0.035696
818.728200 0.106952
818.965200 0.131691
819.202200 0.075709
819.439200 0.081078
819.676200 0.077770
819.913300 0.168907
820.150300 0.121607
820.387400 0.145502
820.624400 0.143225
820.861500 0.053855
821.098600 0.106357
821.335700 0.136239
821.572700 0.123987
821.809900 0.099437
822.047000 0.137087
822.284100 0.004799
822.521200 0.100486
822.758400 0.061487
822.995500 0.185689
823.232700 0.075014
823.469800 0.149660
823.707000 0.133657
823.944200 0.077197
824.181400 0.180812
824.418600 0.163395
824.655800 0.017680
824.893000 0.166614
825.130200 0.163779
825.367500 0.062542
825.604700 0.080740
825.841900 0.091251
826.079200 0.064963
826.316500 0.133422
826.553700 0.060670
826.791000 0.130522
827.028300 0.107587
827.265600 0.071508
827.502900 0.151008
827.740200 0.191022
827.977600 0.108035
828.214900 0.168135
828.452200 0.078313
828.689600 0.160703
828.927000 0.089288
829.164300 0.039193
829.401700 0.102941
829.639100 0.132621
829.876500 0.046381
830.113900 0.151400
830.351300 0.078265
830.588700 0.170278
830.826100 0.130680
831.063600 0.083165
831.301000 0.109260
831.538500 0.112637
831.775900 0.101463
832.013400 0.138010
832.250900 0.179836
832.488400 0.225137
832.725900 0.158026
832.963400 0.136761
833.200900 0.090412
833.438400 0.030276
833.675900 0.160163
833.913500 0.144490
834.151000 0.113821
834.388600 0.155561
834.626100 0.100356
834.863700 0.111225
835.101300 0.110103
835.338900 0.015581
835.576500 0.040991
835.814100 0.062722
836.051700 0.050405
836.289300 0.125302
836.526900 0.041721
836.764600 0.194603
837.002200 0.268286
837.239900 0.222330
837.477500 0.052611
837.715200 0.076883
837.952900 0.128376
838.190600 0.070267
838.428300 -0.029310
838.666000 0.176603
838.903700 0.082978
839.141400 0.140404
839.379100 0.139708
839.616900 0.092073
839.854600 0.067575
840.092400 0.132432
840.330200 0.114432
840.567900 0.211220
840.805700 0.182105
841.043500 0.092386
841.281300 0.074947
841.519100 0.081454
841.756900 0.167176
841.994700 0.050644
842.232600 0.227209
842.470400 0.219698
842.708200 0.088039
842.946100 0.006922
843.184000 -0.016390
843.421800 0.151752
843.659700 0.012136
843.897600 0.040335
844.135500 0.189898
844.373400 0.060865
844.611300 0.157087
844.849200 0.113330
845.087200 0.085235
845.325100 0.125852
845.563100 -0.010632
845.801000 0.171594
846.039000 0.109213
846.277000 0.105388
846.514900 0.072849
846.752900 0.042544
846.990900 0.081381
847.228900 0.075863
847.466900 0.245181
847.705000 0.187074
847.943000 0.061351
848.181000 0.234060
848.419100 0.068078
848.657100 0.201649
848.895200 0.080690
849.133300 0.288652
849.371300 0.190195
849.609400 0.114973
849.847500 0.161317
850.085600 0.112815
850.323700 0.197008
850.561900 0.306957
850.800000 0.047812
851.038100 0.176843
851.276300 -0.048727
851.514400 -0.169605
851.752600 0.175189
851.990800 0.228756
852.228900 -0.027785
852.467100 0.073117
852.705300 0.082508
852.943500 0.027200
853.181700 0.147096
853.420000 0.043919
853.658200 0.050896
853.896400 0.087007
854.134700 0.021359
854.372900 0.133859
854.611200 0.134371
854.849500 0.137220
855.087700 0.123409
855.326000 0.095064
855.564300 0.055795
855.802600 0.108800
856.040900 0.155591
856.279200 0.058461
856.517600 0.055492
856.755900 0.115731
856.994200 0.091998
857.232600 0.097402
857.471000 -0.016766
857.709300 0.097197
857.947700 0.126445
858.186100 0.205084
858.424500 0.060815
858.662900 0.119601
858.901300 0.131968
859.139700 0.125016
859.378100 0.042112
859.616600 0.072939
859.855000 -0.029983
860.093500 0.113010
860.331900 0.009608
860.570400 0.140555
860.808900 0.155403
861.047300 0.145605
861.285800 0.069969
861.524300 0.124562
861.762800 0.179102
862.001300 0.189512
862.239900 0.249629
862.478400 0.144834
862.716900 0.160717
862.955500 0.198633
863.194000 0.062220
863.432600 0.162689
863.671200 0.105002
863.909800 0.152600
864.148300 0.024656
864.386900 0.043766
864.625500 0.158843
864.864200 -0.015358
865.102800 0.062671
865.341400 0.051676
865.580000 0.118344
865.818700 0.102825
866.057300 -0.127831
866.296000 0.179385
866.534700 0.144894
866.773300 0.228947
867.012000 0.098618
867.250700 0.216314
867.489400 0.082069
867.728100 0.004269
867.966900 0.189203
868.205600 0.118344
868.444300 0.067714
868.683100 0.019216
868.921800 -0.039057
869.160600 0.033885
869.399300 -0.002187
869.638100 0.199801
869.876900 0.322139
870.115700 0.179713
870.354500 0.155803
870.593300 -0.011914
870.832100 0.225068
871.070900 0.020275
871.309700 0.073361
871.548600 0.117911
871.787400 0.081126
872.026300 0.061925
872.265100 0.029536
872.504000 0.220424
872.742900 0.101245
872.981800 0.184457
873.220700 0.163105
873.459600 0.183584
873.698500 0.198121
873.937400 0.218956
874.176300 0.033489
874.415300 0.171225
874.654200 0.088911
874.893200 -0.014534
875.132100 0.080962
875.371100 0.075707
875.610100 0.109959
875.849100 0.225361
876.088000 0.096379
876.327000 0.100351
876.566100 0.055725
876.805100 0.050940
877.044100 -0.086288
877.283100 0.119011
877.522200 -0.005661
877.761200 0.069937
878.000300 0.179206
878.239300 0.188023
878.478400 0.271794
878.717500 -0.019841
878.956600 0.082622
879.195700 0.116362
879.434800 0.060586
879.673900 0.041509
879.913000 0.084641
880.152100 0.228450
880.391300 0.194311
880.630400 0.199423
880.869600 0.030162
881.108700 0.154831
881.347900 0.051719
881.587100 0.136939
881.826200 0.210061
882.065400 0.116350
882.304600 -0.002660
882.543800 0.105995
882.783100 0.175913
883.022300 -0.036344
883.261500 0.012843
883.500700 0.005560
883.740000 0.047170
883.979200 0.110640
884.218500 0.116751
884.457800 0.137301
884.697100 0.061138
884.936300 0.099811
885.175600 0.169936
885.414900 0.123435
885.654200 0.076535
885.893600 0.017988
886.132900 0.219008
886.372200 0.167185
886.611600 -0.056321
886.850900 0.051280
887.090300 0.052590
887.329600 0.090697
887.569000 0.183498
887.808400 0.222214
888.047800 -0.046637
888.287200 0.026623
888.526600 0.090020
888.766000 0.066738
889.005400 0.208719
889.244800 0.382344
889.484300 0.174986
889.723700 0.075850
889.963200 0.454598
890.202600 0.099918
890.442100 -0.013154
890.681600 0.143450
890.921100 0.069620
891.160600 0.216314
891.400100 0.138983
891.639600 0.142304
891.879100 0.236505
892.118600 0.106024
892.358100 -0.016607
892.597700 0.065462
892.837200 0.154564
893.076800 0.138783
893.316300 0.046002
893.555900 0.198450
893.795500 0.172626
894.035100 0.185231
894.274700 0.171166
894.514300 0.213057
894.753900 0.215124
894.993500 0.159562
895.233100 0.076170
895.472700 0.345950
895.712400 0.105485
895.952000 0.057508
896.191700 0.097215
896.431400 0.054132
896.671000 0.104209
896.910700 0.074312
897.150400 0.283349
897.390100 0.127295
897.629800 0.148831
897.869500 0.056878
898.109200 0.120328
898.348900 0.060199
898.588700 0.219939
898.828400 0.329596
899.068200 0.164284
899.307900 0.075585
899.547700 0.055943
899.787500 0.409812
900.027200 -0.101592
900.267000 0.246993
900.506800 0.354787
900.746600 0.095355
900.986400 -0.036691
901.226300 0.031422
901.466100 0.149949
901.705900 0.297332
901.945800 0.236604
902.185600 0.126596
902.425500 0.122321
902.665400 -0.038598
902.905200 -0.029519
903.145100 0.165200
903.385000 0.320444
903.624900 0.179832
903.864800 0.109214
904.104700 0.103066
904.344600 0.112694
904.584600 -0.064975
904.824500 0.090414
905.064400 0.103572
905.304400 0.089493
905.544400 0.005763
905.784300 0.195155
906.024300 0.077162
906.264300 -0.000275
906.504300 0.136832
906.744300 0.183159
906.984300 0.096687
907.224300 0.237136
907.464300 0.121360
907.704300 0.276570
907.944400 0.070035
908.184400 0.240440
908.424500 0.103738
908.664500 0.011756
908.904600 0.018393
909.144700 0.272327
909.384700 0.470710
909.624800 0.103687
909.864900 0.108014
910.105000 0.241741
910.345200 -0.059531
910.585300 0.040339
910.825400 0.252528
911.065500 0.112778
911.305700 0.380475
911.545800 0.048424
911.786000 0.288531
912.026200 0.282848
912.266300 0.258155
912.506500 0.034155
912.746700 0.198233
912.986900 0.079831
913.227100 -0.001519
913.467300 0.226744
913.707500 0.158503
913.947800 0.148372
914.188000 0.275544
914.428300 -0.026305
914.668500 0.297548
914.908800 0.002767
915.149000 0.074002
915.389300 0.097772
915.629600 0.122065
915.869900 0.164616
916.110200 0.161059
916.350500 0.750597
916.590800 0.032123
916.831100 0.050303
917.071400 0.005168
917.311800 0.263890
917.552100 0.037772
917.792500 0.093844
918.032800 0.178783
918.273200 0.026536
918.513600 0.248141
918.753900 0.036663
918.994300 0.247654
919.234700 0.186495
919.475100 0.114313
919.715500 0.115413
919.956000 0.020032
920.196400 0.186066
920.436800 0.269707
920.677300 0.031571
920.917700 0.112324
921.158200 0.118600
921.398600 0.063429
921.639100 0.420979
921.879600 -0.056881
922.120100 0.077715
922.360600 0.052329
922.601100 0.297957
922.841600 0.369959
923.082100 0.167403
923.322600 0.008242
923.563100 0.284904
923.803700 0.128800
924.044200 -0.046671
924.284800 0.123170
924.525400 0.464401
924.765900 0.291132
925.006500 -0.012503
925.247100 0.083505
925.487700 -0.103778
925.728300 0.150699
925.968900 0.031473
926.209500 0.124679
926.450100 0.085150
926.690800 0.204529
926.931400 0.448907
927.172000 0.026319
927.412700 0.249355
927.653300 0.167811
927.894000 -0.039708
928.134700 0.386291
928.375400 -0.055961
928.616100 0.507625
928.856800 0.047967
929.097500 0.126530
929.338200 0.310665
929.578900 0.053636
929.819600 0.371182
930.060400 0.072860
930.301100 0.123239
930.541900 0.018385
930.782600 0.044252
931.023400 0.182907
931.264200 0.378835
931.504900 0.065721
931.745700 0.658991
931.986500 -0.029305
932.227300 0.008362
932.468100 0.217513
932.708900 0.169913
932.949800 0.143203
933.190600 0.457740
933.431400 0.091462
933.672300 0.214349
933.913100 0.025985
934.154000 0.280067
934.394900 0.240998
934.635800 0.072077
934.876600 0.470196
935.117500 0.475777
935.358400 0.225546
935.599300 0.208889
935.840300 0.171317
936.081200 0.129439
936.322100 3.152288
936.563000 0.484429
936.804000 0.229137
937.044900 -0.166036
937.285900 0.345967
937.526900 0.296279
937.767800 0.384287
938.008800 0.779227
938.249800 0.427642
938.490800 0.739610
938.731800 0.250041
938.972800 0.117373
939.213800 0.467846
939.454900 0.254344
939.695900 -0.217566
939.936900 0.922914
940.178000 0.069160
940.419000 0.016957
940.660100 0.087849
940.901200 0.526197
941.142200 0.128484
941.383300 0.820060
941.624400 0.507850
941.865500 0.473922
942.106600 0.154503
942.347700 -0.194153
942.588900 0.316842
942.830000 -0.040828
943.071100 0.016271
943.312300 0.166948
943.553400 0.500602
943.794600 0.197811
944.035700 0.409026
944.276900 0.202747
944.518100 1.094901
944.759300 0.204684
945.000500 2.827369
945.241700 0.230605
945.482900 3.272770
945.724100 0.424849
945.965300 3.055378
946.206600 -0.196352
946.447800 3.063333
946.689100 0.086047
946.930300 0.012544
947.171600 0.010711
947.412800 3.171434
947.654100 3.168203
947.895400 0.502422
948.136700 -0.018380
948.378000 2.902547
948.619300 3.257918
948.860600 3.265290
949.101900 -0.120146
949.343300 0.394579
949.584600 0.888448
949.825900 0.552160
950.067300 1.069728
950.308600 0.878981
950.550000 0.626927
950.791400 -0.157350
951.032700 -0.405329
951.274100 0.330553
951.515500 0.457564
951.756900 -0.130289
951.998300 0.143272
952.239800 1.504054
952.481200 0.464911
952.722600 -0.272327
952.964000 1.086224
953.205500 3.198382
953.446900 -0.009195
953.688400 0.122308
953.929900 0.688674
954.171300 -1.165159
954.412800 0.175310
954.654300 -0.231237
954.895800 0.036029
955.137300 0.216857
955.378800 -0.141404
955.620300 0.054541
955.861800 3.323252
956.103400 -0.030909
956.344900 -0.173012
956.586500 0.871055
956.828000 0.208241
957.069600 -0.034676
957.311100 -0.332506
957.552700 3.389875
957.794300 0.217935
958.035900 -0.146218
958.277500 -0.001293
958.519100 0.524834
958.760700 0.285710
959.002300 2.632457
959.243900 0.544845
959.485600 0.754202
959.727200 -0.124014
959.968800 -0.256377
960.210500 -0.201618
960.452200 0.441060
960.693800 -0.103350
960.935500 0.000000
961.177200 0.693205
961.418900 2.653213
961.660600 0.272460
961.902300 1.572581
962.144000 -0.758182
962.385700 -0.036324
962.627400 3.115278
962.869200 -0.018656
963.110900 0.426399
963.352700 2.840106
963.594400 3.215373
963.836200 2.999565
964.077900 3.168203
964.319700 3.145818
964.561500 0.410868
964.803300 3.139249
965.045100 0.103976
965.286900 0.006361
965.528700 0.701274
965.770500 1.333447
966.012300 2.827369
966.254200 2.791691
966.496000 0.744623
966.737900 0.436711
966.979700 0.016658
967.221600 0.559627
967.463400 3.189490
967.705300 0.129860
967.947200 -0.321247
968.189100 -0.553538
968.431000 3.198382
968.672900 0.346457
968.914800 3.030195
969.156700 2.745075
969.398700 -0.290430
969.640600 0.643453
969.882500 0.874888
970.124500 2.575188
970.366400 3.209515
970.608400 1.440909
970.850400 -0.075212
971.092300 0.570275
971.334300 2.990339
971.576300 -0.024459
971.818300 3.226342
972.060300 3.062958
972.302300 0.447066
972.544300 2.745075
972.786400 0.616300
973.028400 3.206826
973.270400 0.070105
973.512500 0.115347
973.754500 0.594761
973.996600 0.127289
974.238700 0.702574
974.480700 -0.060645
974.722800 0.099552
974.964900 1.580985
975.207000 0.059127
975.449100 0.241546
975.691200 3.046885
975.933300 0.327359
976.175500 -2.577492
976.417600 3.051153
976.659700 0.254770
976.901900 3.021603
977.144000 1.913814
977.386200 2.745075
977.628300 0.991033
977.870500 3.139249
978.112700 2.776701
978.354900 -0.237705
978.597100 2.975891
978.839300 0.220502
979.081500 3.115278
979.323700 -2.785330
979.565900 0.062728
979.808200 0.185747
980.050400 0.581903
980.292600 0.482261
980.534900 3.012837
980.777100 -0.339417
981.019400 -0.242819
981.261700 3.201124
981.504000 0.423577
981.746200 1.845098
981.988500 3.013259
982.230800 0.337154
982.473100 0.569318
982.715500 3.218010
982.957800 -0.177468
983.200100 2.990339
983.442400 2.610660
983.684800 0.134699
983.927100 -0.296535
984.169500 2.985426
984.411800 0.404236
984.654200 0.292075
984.896600 3.082785
985.139000 -1.833635
985.381400 3.229170
985.623800 0.691671
985.866200 -0.038789
986.108600 -1.919078
986.351000 3.089905
986.593400 0.420528
986.835800 0.314687
987.078300 2.682145
987.320700 2.940516
987.563200 2.700704
987.805600 -0.488117
988.048100 3.189209
988.290600 0.159450
988.533100 0.000000
988.775600 2.980458
989.018000 0.158149
989.260500 -0.118303
989.503100 -1.602060
989.745600 2.123852
989.988100 0.000000
990.230600 0.242691
990.473200 0.409168
990.715700 3.257679
990.958200 -0.379344
991.200800 0.470917
991.443400 -2.946452
991.685900 0.917726
991.928500 0.000000
992.171100 2.158362
992.413700 0.258339
992.656300 1.242589
992.898900 2.866287
993.141500 0.101648
993.384100 3.021603
993.626700 0.157761
993.869400 -0.175588
994.112000 2.806180
994.354700 0.262154
994.597300 3.030195
994.840000 -2.526339
995.082600 -0.635936
995.325300 0.252480
995.568000 0.056780
995.810700 -0.450387
996.053400 2.866287
996.296100 -0.220684
996.538800 0.722823
996.781500 3.171141
997.024200 -0.115135
997.267000 0.006361
997.509700 3.186674
997.752400 2.768638
997.995200 0.148063
998.237900 0.301894
998.480700 2.890421
998.723500 -2.914343
998.966200 0.556495
999.209000 0.000000
999.451800 3.003891
999.694600 3.025715
999.937400 2.318063
1000.180200 2.913284
1000.423000 0.500430
1000.665900 0.004859
1000.908700 2.396199
1001.151500 2.727541
1001.394400 -0.096910
1001.637200 3.078457
1001.880100 0.778151
1002.123000 -0.062984
1002.365800 2.599883
1002.608700 2.357935
1002.851600 2.913284
1003.094500 0.401514
1003.337400 2.217484
1003.580300 0.000000
1003.823200 2.414973
1004.066100 2.945961
1004.309100 0.034486
1004.552000 0.385351
1004.794900 2.847573
1005.037900 0.057486
1005.280800 0.121335
1005.523800 3.183555
1005.766700 2.783904
1006.009700 0.548964
1006.252700 -2.017033
1006.495700 1.534160
1006.738700 -1.278754
1006.981700 3.136086
1007.224700 2.653213
1007.467700 -0.214116
1007.710700 2.610660
1007.953800 1.129095
1008.196800 0.719363
1008.439800 3.195346
1008.682900 2.691965
1008.925900 0.697931
1009.169000 2.884229
1009.412100 0.000000
1009.655100 2.008600
1009.898200 0.280212
1010.141300 -0.065341
1010.384400 3.012837
1010.627500 2.550228
1010.870600 3.165244
1011.113700 0.063931
1011.356800 0.155559
1011.600000 -1.073577
1011.843100 0.649440
1012.086300 0.000000
1012.329400 1.115020
1012.572600 -2.017033
1012.815700 -0.130440
1013.058900 0.000000
1013.302100 0.683745
1013.545200 2.960946
1013.788400 0.182915
1014.031600 0.000000
1014.274800 0.247167
1014.518000 0.105824
1014.761300 0.363289
1015.004500 -2.096910
1015.247700 2.940516
1015.490900 -2.986324
1015.734200 3.239800
1015.977400 2.450249
1016.220700 0.000000
1016.464000 2.853090
1016.707200 2.190332
1016.950500 2.378398
1017.193800 -0.114480
1017.437100 0.339576
1017.680400 0.320784
1017.923700 2.975891
1018.167000 0.832051
1018.410300 2.643453
1018.653600 2.913814
1018.896900 3.021603
1019.140300 0.385756
1019.383600 0.061785
1019.627000 2.950851
1019.870300 2.465383
1020.113700 1.581495
1020.357100 -0.568139
1020.600400 2.853698
1020.843800 3.090258
1021.087200 0.966983
1021.330600 -2.737987
1021.574000 3.070776
1021.817400 0.000000
1022.060800 0.000000
1022.304200 0.000000
1022.547700 2.902003
1022.791100 2.432969
1023.034500 -0.182722
