# Wavelength	Absorbance
197.780200 0.385761
197.984200 -0.359458
198.188200 0.779905
198.392200 2.682145
198.596300 -0.076486
198.800300 2.318063
199.004400 0.053451
199.208500 0.293416
199.412600 0.509529
199.616800 -0.143584
199.820900 -0.252288
200.025100 2.877947
200.229200 2.463893
200.433400 -0.098949
200.637600 -0.266918
200.841800 2.902003
201.046100 0.096378
201.250300 0.303224
201.454600 0.158310
201.658900 -0.249443
201.863100 0.105455
202.067400 2.760422
202.271800 3.093772
202.476100 -0.015696
202.680500 2.827369
202.884800 0.383861
203.089200 1.034628
203.293600 -0.155838
203.498000 -0.164810
203.702400 2.336460
203.906900 1.959041
204.111300 -2.572872
204.315800 2.728354
204.520300 0.600560
204.724800 -0.093530
204.929300 2.396199
205.133800 0.149289
205.338400 -0.113792
205.543000 0.133609
205.747500 2.682145
205.952100 -0.120531
206.156700 1.034628
206.361400 -2.865104
206.566000 -0.954556
206.770600 -0.094011
206.975300 -0.680506
207.180000 -2.088895
207.384700 -0.163568
207.589400 -3.185825
207.794100 -0.302466
207.998900 2.622214
208.203600 -0.002744
208.408400 0.236012
208.613200 -0.287348
208.818000 -0.761654
209.022800 2.414973
209.227600 0.272427
209.432500 0.055469
209.637300 -0.420952
209.842200 -0.347008
210.047100 2.798651
210.252000 -1.039993
210.456900 -0.006711
210.661800 0.482507
210.866800 0.160346
211.071800 0.129515
211.276700 -0.259664
211.481700 -0.284379
211.686700 0.238006
211.891800 -0.287149
212.096800 0.273678
212.301800 2.890421
212.506900 -0.047415
212.712000 2.965672
212.917100 0.011498
213.122200 2.866287
213.327300 1.008705
213.532500 -2.751279
213.737600 0.437652
213.942800 -1.364417
214.148000 -0.687246
214.353200 0.000000
214.558400 -0.185908
214.763600 0.584048
214.968900 -0.225034
215.174100 3.104487
215.379400 -3.020775
215.584700 0.579784
215.790000 0.027726
215.995300 0.272427
216.200700 0.313420
216.406000 0.220762
216.611400 -0.482696
216.816800 0.312646
217.022200 0.621176
217.227600 1.188733
217.433000 -0.011216
217.638400 -0.088176
217.843900 -0.473065
218.049400 -2.944483
218.254800 0.385779
218.460300 0.064117
218.665900 1.423246
218.871400 3.234517
219.076900 0.328526
219.282500 0.498548
219.488100 3.047275
219.693600 0.427878
219.899200 3.267641
220.104900 0.413904
220.310500 -0.304036
220.516100 -2.955207
220.721800 -0.337091
220.927500 0.218665
221.133200 -0.265610
221.338900 -0.323823
221.544600 2.846955
221.750300 0.916383
221.956100 0.042307
222.161800 0.255671
222.367600 -0.455189
222.573400 -0.182622
222.779200 -2.394452
222.985000 0.000000
223.190900 -0.381184
223.396700 -0.060065
223.602600 1.064256
223.808500 0.584108
224.014400 0.212224
224.220300 0.315371
224.426200 -0.120147
224.632200 -0.301843
224.838100 0.534395
225.044100 -0.199267
225.250100 -0.261347
225.456100 -0.439859
225.662100 -0.663549
225.868100 -0.554136
226.074200 -0.290787
226.280200 -3.296007
226.486300 -0.488904
226.692400 -2.826075
226.898500 -0.155795
227.104600 -0.582905
227.310700 0.136962
227.516900 0.022209
227.723000 -1.089934
227.929200 1.170068
228.135400 -0.098952
228.341600 2.622214
228.547800 -0.006384
228.754100 0.609439
228.960300 -0.521643
229.166600 -2.356026
229.372900 -0.306895
229.579100 -0.438513
229.785500 1.223489
229.991800 0.845098
230.198100 0.252393
230.404500 1.963788
230.610800 0.080647
230.817200 -2.751279
231.023600 0.001119
231.230000 -0.337728
231.436400 0.114464
231.642900 0.566213
231.849300 0.791691
232.055800 -0.903622
232.262300 3.280123
232.468800 -0.435410
232.675300 -0.310425
232.881800 0.387695
233.088400 -0.512124
233.294900 2.550228
233.501500 0.012701
233.708100 -3.214844
233.914700 0.218203
234.121300 -2.521138
234.327900 -0.088403
234.534600 -0.395949
234.741300 0.174360
234.947900 0.469225
235.154600 0.360095
235.361300 3.122544
235.568000 3.022016
235.774800 0.899330
235.981500 -0.646954
236.188300 -2.313867
236.395100 2.999565
236.601800 0.000000
236.808700 0.413171
237.015500 0.388549
237.222300 0.071226
237.429200 0.498134
237.636000 -0.124644
237.842900 -1.226836
238.049800 0.006332
238.256700 -0.247701
238.463600 0.851146
238.670600 -0.107283
238.877500 0.427167
239.084500 -2.734800
239.291500 0.606206
239.498500 -0.435729
239.705500 -0.139020
239.912500 -1.055815
240.119500 -0.739556
240.326600 -0.743661
240.533700 -3.231215
240.740700 -0.020298
240.947800 0.078117
241.154900 0.169883
241.362100 -0.020173
241.569200 2.632457
241.776400 -0.030253
241.983500 2.783904
242.190700 -0.079855
242.397900 0.000000
242.605100 -0.103655
242.812400 -0.497936
243.019600 0.156646
243.226900 0.048305
243.434100 0.316687
243.641400 -0.292987
243.848700 0.037865
244.056000 -2.267172
244.263400 -0.488864
244.470700 0.462649
244.678100 0.364756
244.885400 0.793180
245.092800 -0.241099
245.300200 2.357935
245.507600 0.006962
245.715100 -0.297001
245.922500 -0.095435
246.130000 -1.832133
246.337500 -0.068570
246.544900 -0.245275
246.752400 0.933107
246.960000 0.287873
247.167500 0.041604
247.375000 -3.078094
247.582600 0.081233
247.790200 -0.468769
247.997800 -0.292974
248.205400 0.350703
248.413000 -0.173366
248.620600 -0.161760
248.828300 0.518934
249.035900 -0.231614
249.243600 1.196145
249.451300 3.282396
249.659000 0.050491
249.866700 3.168203
250.074500 0.064974
250.282200 0.300189
250.490000 0.109381
250.697800 1.083527
250.905600 2.480007
251.113400 2.929930
251.321200 -0.103082
251.529000 -0.843880
251.736900 3.177536
251.944700 0.451874
252.152600 1.022417
252.360500 -0.179184
252.568400 2.662758
252.776300 -0.687707
252.984300 -0.339793
253.192200 1.221998
253.400200 0.011759
253.608200 -0.597673
253.816200 -0.008973
254.024200 2.872739
254.232200 -0.740059
254.440200 -3.062582
254.648300 -0.461837
254.856400 0.020327
255.064400 -0.063504
255.272500 0.783737
255.480600 0.265350
255.688800 0.000000
255.896900 0.045667
256.105100 3.284882
256.313200 -0.368743
256.521400 2.827369
256.729600 3.025715
256.937800 0.453763
257.146000 -0.339793
257.354300 -2.993877
257.562500 3.204120
257.770800 -3.100371
257.979100 3.195346
258.187400 0.152543
258.395700 0.117584
258.604000 1.466427
258.812400 2.919078
259.020700 0.326287
259.229100 -0.293796
259.437500 -0.286323
259.645900 3.198382
259.854300 2.878522
260.062700 -0.136732
260.271100 0.307309
260.479600 -0.030795
260.688100 -0.573158
260.896500 0.152482
261.105000 2.089905
261.313500 0.226725
261.522100 0.290222
261.730600 0.373089
261.939200 0.345542
262.147700 -0.022099
262.356300 0.083262
262.564900 -0.484217
262.773500 -0.067561
262.982200 0.578246
263.190800 -2.521138
263.399500 0.395251
263.608100 0.517879
263.816800 3.034628
264.025500 -0.401068
264.234200 -0.871021
264.442900 -0.772996
264.651700 -0.063764
264.860400 -0.037080
265.069200 -0.152424
265.278000 0.778151
265.486800 2.975891
265.695600 -0.301030
265.904400 2.950851
266.113300 2.599883
266.322100 0.251758
266.531000 -0.847610
266.739900 -0.827094
266.948800 0.731355
267.157700 0.288198
267.366600 -0.181159
267.575500 0.202743
267.784500 -0.461765
267.993500 -0.301250
268.202400 0.026329
268.411400 0.066396
268.620500 -0.103928
268.829500 -0.006498
269.038500 2.123852
269.247600 0.189517
269.456600 -0.484160
269.665700 -0.321009
269.874800 2.907411
270.083900 0.537602
270.293100 -3.220370
270.502200 -0.072921
270.711400 -0.785117
270.920500 -0.131417
271.129700 0.492666
271.338900 0.150409
271.548100 -0.337419
271.757300 3.030195
271.966600 0.534395
272.175800 3.277609
272.385100 0.535983
272.594400 1.207384
272.803700 0.809415
273.013000 -0.404236
273.222300 0.565005
273.431600 0.672484
273.641000 0.589647
273.850400 0.060094
274.059700 0.453200
274.269100 0.589379
274.478500 0.006369
274.688000 0.371980
274.897400 -0.262112
275.106900 -1.502007
275.316300 3.055378
275.525800 -0.026000
275.735300 -3.100371
275.944800 0.100568
276.154300 -0.271235
276.363900 0.173359
276.573400 -0.539924
276.783000 2.965672
276.992600 0.452504
277.202200 0.347437
277.411800 -0.433065
277.621400 2.727541
277.831000 0.418758
278.040700 3.177536
278.250300 2.820201
278.460000 0.442747
278.669700 -0.004069
278.879400 0.432969
279.089100 0.095368
279.298900 -0.225103
279.508600 0.102471
279.718400 0.069193
279.928100 -2.661813
280.137900 3.215373
280.347700 0.632457
280.557600 0.226146
280.767400 1.039017
280.977200 2.872156
281.187100 0.000000
281.397000 -0.113672
281.606900 -3.191730
281.816800 3.152288
282.026700 -0.189840
282.236600 0.167847
282.446600 -0.087714
282.656500 0.000000
282.866500 -0.270891
283.076500 -0.933849
283.286500 0.397607
283.496500 -0.090960
283.706500 -0.178236
283.916600 -0.196295
284.126600 0.845098
284.336700 -0.155418
284.546800 -0.074102
284.756900 1.025715
284.967000 2.896526
285.177100 0.030976
285.387300 0.000000
285.597400 3.017033
285.807600 -0.469492
286.017800 0.938220
286.228000 -2.751279
286.438200 0.186907
286.648400 2.940516
286.858700 3.265290
287.068900 -0.173571
287.279200 2.846955
287.489500 -0.047425
287.699800 0.611191
287.910100 -0.231304
288.120400 0.135053
288.330800 -0.497562
288.541100 0.143707
288.751500 2.217484
288.961900 -0.151621
289.172300 0.000000
289.382700 0.718791
289.593100 -0.098709
289.803500 -2.923244
290.014000 0.586006
290.224500 3.059185
290.434900 -3.029384
290.645400 -0.042171
290.855900 0.105438
291.066500 0.091515
291.277000 -0.038180
291.487500 -0.108733
291.698100 0.195766
291.908700 -0.646071
292.119300 3.059185
292.329900 -0.160608
292.540500 -0.246618
292.751100 -0.235562
292.961800 -2.734800
293.172400 0.133609
293.383100 -2.993877
293.593800 0.277086
293.804500 2.495544
294.015200 0.383861
294.226000 -3.078094
294.436700 -0.221435
294.647500 -0.295081
294.858200 0.162594
295.069000 3.055378
295.279800 -0.175826
295.490600 0.000000
295.701500 0.486313
295.912300 3.082785
296.123200 0.292521
296.334000 -0.106744
296.544900 0.922357
296.755800 0.029162
296.966700 0.105000
297.177700 0.516208
297.388600 -0.285366
297.599500 -0.044354
297.810500 3.090258
298.021500 0.146190
298.232500 -0.075575
298.443500 1.690196
298.654500 0.139712
298.865600 3.125806
299.076600 -0.432399
299.287700 -2.852480
299.498800 0.604527
299.709900 2.902003
299.921000 3.234517
300.132100 0.442023
300.343200 0.285919
300.554400 0.455510
300.765500 -0.428244
300.976700 -2.933993
301.187900 -0.104760
301.399100 2.813581
301.610300 0.184885
301.821500 3.364739
302.032800 -0.301542
302.244100 -0.338958
302.455300 0.379934
302.666600 -0.122492
302.877900 0.314120
303.089200 -0.727712
303.300600 -0.062523
303.511900 0.253141
303.723300 0.841494
303.934600 2.884795
304.146000 -2.148779
304.357400 0.076943
304.568800 -0.156074
304.780300 3.192289
304.991700 -0.236158
305.203100 -1.005309
305.414600 -0.329119
305.626100 0.294466
305.837600 3.201124
306.049100 -0.253409
306.260600 1.153525
306.472200 -1.201645
306.683700 0.194682
306.895300 -0.176091
307.106900 0.064112
307.318400 3.034628
307.530100 -0.038332
307.741700 -0.403067
307.953300 0.286132
308.165000 0.000000
308.376600 0.565452
308.588300 0.459820
308.800000 0.236960
309.011700 0.480309
309.223400 3.125806
309.435100 -0.332224
309.646900 1.076678
309.858600 0.625244
310.070400 -0.265932
310.282200 -1.527814
310.494000 0.892678
310.705800 -0.017623
310.917600 -0.178551
311.129500 2.840106
311.341300 0.258621
311.553200 1.612211
311.765100 -0.128157
311.977000 3.142702
312.188900 3.122544
312.400800 0.086117
312.612700 0.173359
312.824700 0.402733
313.036600 -0.185230
313.248600 3.332034
313.460600 2.999565
313.672600 0.196987
313.884600 0.730334
314.096700 0.332711
314.308700 0.266715
314.520800 0.139627
314.732800 0.591202
314.944900 0.180926
315.157000 0.397658
315.369200 0.441311
315.581300 0.815614
315.793400 -0.331315
316.005600 0.325429
316.217700 3.168203
316.429900 0.569968
316.642100 0.385730
316.854300 0.015678
317.066600 0.341885
317.278800 0.196770
317.491100 0.280067
317.703300 1.438632
317.915600 0.545167
318.127900 0.236513
318.340200 0.122632
318.552500 0.280301
318.764900 3.139249
318.977200 0.222748
319.189600 0.278916
319.401900 0.389499
319.614300 3.245019
319.826700 0.129707
320.039200 3.358886
320.251600 0.031106
320.464000 3.336260
320.676500 0.143730
320.889000 2.465383
321.101400 0.286307
321.313900 0.498693
321.526500 0.275004
321.739000 0.487275
321.951500 0.132855
322.164100 3.132580
322.376600 0.912672
322.589200 1.794658
322.801800 0.315774
323.014400 0.426979
323.227000 0.219426
323.439700 0.472232
323.652300 0.618812
323.865000 0.657078
324.077700 1.163657
324.290400 3.310268
324.503100 0.477667
324.715800 0.509853
324.928500 3.425697
325.141200 3.384174
325.354000 0.505671
325.566800 1.237586
325.779600 0.557018
325.992400 0.200099
326.205200 1.330389
326.418000 0.338911
326.630800 0.535390
326.843700 3.659250
327.056600 0.242462
327.269400 3.416973
327.482300 0.446342
327.695200 1.233675
327.908200 0.340782
328.121100 3.453930
328.334000 0.630882
328.547000 0.974876
328.760000 0.440118
328.973000 3.578983
329.186000 1.250444
329.399000 3.445915
329.612000 1.074195
329.825100 0.370542
330.038100 0.752061
330.251200 0.458261
330.464300 0.875825
330.677400 3.635484
330.890500 0.591049
331.103600 3.526469
331.316700 0.355289
331.529900 3.658298
331.743100 1.062741
331.956200 0.525889
332.169400 0.305530
332.382600 1.207009
332.595900 1.192825
332.809100 1.392578
333.022300 0.860807
333.235600 0.971656
333.448900 0.652205
333.662200 3.609381
333.875500 3.666331
334.088800 1.306063
334.302100 0.417475
334.515400 3.647089
334.728800 0.595766
334.942200 3.626956
335.155500 0.307935
335.368900 1.235726
335.582300 0.728657
335.795800 3.676968
336.009200 0.778622
336.222700 3.666237
336.436100 1.642473
336.649600 0.840743
336.863100 0.621440
337.076600 1.004563
337.290100 0.515562
337.503600 3.672098
337.717200 0.555713
337.930700 3.722716
338.144300 0.836554
338.357900 0.691088
338.571500 0.850565
338.785100 0.625111
338.998700 0.632181
339.212400 1.242440
339.426000 0.834773
339.639700 0.814786
339.853300 1.047924
340.067000 3.741388
340.280700 0.650983
340.494500 1.007601
340.708200 1.252783
340.921900 1.200047
341.135700 0.622598
341.349500 0.797273
341.563300 0.858583
341.777100 1.270319
341.990900 0.793341
342.204700 3.816042
342.418500 1.602060
342.632400 0.818467
342.846300 0.647433
343.060100 3.693023
343.274000 0.947665
343.487900 0.619623
343.701900 0.646582
343.915800 1.093184
344.129700 0.596461
344.343700 0.616638
344.557700 3.886829
344.771700 1.236823
344.985700 3.914502
345.199700 0.597947
345.413700 0.964431
345.627700 0.918228
345.841800 1.152850
346.055900 1.154286
346.269900 1.656457
346.484000 1.542590
346.698100 1.928059
346.912300 3.850340
347.126400 1.053532
347.340600 1.199326
347.554700 1.148464
347.768900 1.491870
347.983100 0.967086
348.197300 0.652708
348.411500 1.146071
348.625700 1.318985
348.840000 0.770216
349.054200 3.926085
349.268500 0.612842
349.482800 1.226198
349.697100 1.110059
349.911400 1.725544
350.125700 0.976578
350.340000 1.140601
350.554400 1.032008
350.768700 1.912806
350.983100 1.396682
351.197500 3.889246
351.411900 0.589461
351.626300 3.954918
351.840700 0.951039
352.055200 1.384191
352.269600 1.807182
352.484100 3.950851
352.698600 3.990072
352.913100 0.884864
353.127600 0.851272
353.342100 0.877859
353.556600 0.909066
353.771200 0.846166
353.985800 1.587617
354.200300 1.358027
354.414900 2.217665
354.629500 1.172343
354.844100 1.782086
355.058800 0.864329
355.273400 1.082067
355.488100 3.989138
355.702700 0.668402
355.917400 2.734800
356.132100 0.763403
356.346800 1.092698
356.561500 0.911293
356.776300 0.980451
356.991000 1.407294
357.205800 1.439489
357.420600 1.064958
357.635300 0.881674
357.850100 4.018617
358.065000 2.787815
358.279800 3.980549
358.494600 1.148420
358.709500 1.047678
358.924300 3.975799
359.139200 2.141589
359.354100 3.988202
359.569000 4.007534
359.783900 0.789708
359.998900 0.765733
360.213800 0.864914
360.428800 1.160395
360.643800 1.282660
360.858700 0.683796
361.073700 4.040048
361.288800 4.042142
361.503800 4.026452
361.718800 1.071952
361.933900 1.144219
362.148900 1.115953
362.364000 3.994713
362.579100 0.853598
362.794200 0.973603
363.009300 0.917218
363.224500 1.010431
363.439600 0.931209
363.654800 4.034989
363.869900 1.138863
364.085100 1.285147
364.300300 0.728740
364.515500 1.896813
364.730800 0.805647
364.946000 1.080636
365.161200 4.048325
365.376500 0.993289
365.591800 0.947255
365.807100 4.020403
366.022400 0.907845
366.237700 2.180394
366.453000 1.906375
366.668400 4.089375
366.883700 1.017529
367.099100 4.077622
367.314500 0.950517
367.529900 4.111531
367.745300 1.052096
367.960700 4.089375
368.176100 2.888951
368.391600 1.460376
368.607000 0.866898
368.822500 1.146699
369.038000 0.913636
369.253500 1.527533
369.469000 0.937896
369.684500 1.247672
369.900100 0.935943
370.115600 1.426452
370.331200 1.153364
370.546800 0.989398
370.762400 1.413595
370.978000 1.123462
371.193600 0.930582
371.409200 1.577023
371.624900 0.929494
371.840500 1.584532
372.056200 1.036490
372.271900 0.805122
372.487600 0.857138
372.703300 4.129915
372.919000 0.899908
373.134800 4.137671
373.350500 1.055541
373.566300 1.887465
373.782000 1.846841
373.997800 1.148723
374.213600 1.164908
374.429400 4.167613
374.645300 1.683768
374.861100 1.005949
375.077000 1.085186
375.292800 1.415173
375.508700 2.212241
375.724600 0.919217
375.940500 1.500734
376.156400 1.230578
376.372400 0.946361
376.588300 4.218667
376.804300 1.452247
377.020300 1.119181
377.236200 1.078487
377.452200 1.078086
377.668200 1.396516
377.884300 1.598545
378.100300 1.319272
378.316400 1.770741
378.532400 0.979659
378.748500 4.301356
378.964600 4.312452
379.180700 1.116663
379.396800 1.045883
379.612900 1.785101
379.829100 1.007798
380.045200 1.264984
380.261400 2.233206
380.477600 1.264472
380.693800 1.027177
380.910000 0.996942
381.126200 0.947127
381.342400 1.234312
381.558700 1.728135
381.774900 1.537328
381.991200 1.100741
382.207500 1.122937
382.423800 1.260960
382.640100 4.341553
382.856400 1.049967
383.072800 2.319502
383.289100 1.202440
383.505500 4.335458
383.721900 1.264795
383.938200 1.719335
384.154600 1.547832
384.371100 4.337779
384.587500 2.585363
384.803900 1.304308
385.020400 1.073567
385.236800 1.516854
385.453300 1.485007
385.669800 1.451400
385.886300 1.437501
386.102800 0.946988
386.319400 1.399305
386.535900 1.532494
386.752500 1.310487
386.969000 1.152829
387.185600 1.130910
387.402200 1.232597
387.618800 1.416045
387.835500 1.556878
388.052100 1.112584
388.268700 1.367829
388.485400 0.819221
388.702100 1.272830
388.918800 1.605114
389.135500 1.306433
389.352200 1.099787
389.568900 0.937267
389.785600 0.957743
390.002400 1.080059
390.219200 1.280659
390.435900 1.110232
390.652700 0.767701
390.869500 1.028430
391.086300 0.847954
391.303200 0.925667
391.520000 0.891428
391.736900 1.063055
391.953700 0.901373
392.170600 0.920242
392.387500 0.752758
392.604400 0.859254
392.821300 0.727909
393.038300 0.788141
393.255200 0.792960
393.472200 0.759014
393.689100 0.801735
393.906100 0.783970
394.123100 0.697538
394.340100 0.807995
394.557200 0.641927
394.774200 0.648198
394.991200 0.637462
395.208300 0.706991
395.425400 0.616024
395.642500 0.652689
395.859600 0.693577
396.076700 0.672231
396.293800 0.566722
396.510900 0.624150
396.728100 0.661195
396.945300 0.620431
397.162400 0.623019
397.379600 0.615151
397.596800 0.532503
397.814000 0.610476
398.031300 0.612544
398.248500 0.588043
398.465800 0.559962
398.683000 0.560410
398.900300 0.513982
399.117600 0.569962
399.334900 0.533105
399.552200 0.497001
399.769600 0.431089
399.986900 0.529496
400.204300 0.471287
400.421600 0.509163
400.639000 0.502640
400.856400 0.467100
401.073800 0.488850
401.291200 0.474243
401.508700 0.516747
401.726100 0.458842
401.943600 0.402801
402.161000 0.472703
402.378500 0.407762
402.596000 0.432247
402.813500 0.419327
403.031000 0.403141
403.248600 0.449454
403.466100 0.443545
403.683700 0.395783
403.901300 0.405301
404.118900 0.391006
404.336500 0.372979
404.554100 0.389987
404.771700 0.380610
404.989300 0.345733
405.207000 0.381121
405.424600 0.414438
405.642300 0.375959
405.860000 0.369494
406.077700 0.404576
406.295400 0.340017
406.513100 0.311197
406.730900 0.329532
406.948600 0.334629
407.166400 0.370332
407.384200 0.374852
407.602000 0.300251
407.819800 0.319156
408.037600 0.353977
408.255400 0.293021
408.473300 0.369186
408.691100 0.323083
408.909000 0.300831
409.126900 0.315264
409.344800 0.305088
409.562700 0.271463
409.780600 0.293477
409.998500 0.327353
410.216500 0.340237
410.434400 0.296143
410.652400 0.304719
410.870400 0.300456
411.088400 0.297176
411.306400 0.285229
411.524400 0.293261
411.742400 0.290580
411.960500 0.278392
412.178500 0.265430
412.396600 0.242750
412.614700 0.263906
412.832800 0.262695
413.050900 0.272793
413.269000 0.255248
413.487100 0.293462
413.705300 0.288114
413.923400 0.275949
414.141600 0.302770
414.359800 0.286565
414.578000 0.250194
414.796200 0.256795
415.014400 0.318207
415.232600 0.292423
415.450900 0.243666
415.669200 0.222483
415.887400 0.325909
416.105700 0.256725
416.324000 0.252751
416.542300 0.252794
416.760600 0.278574
416.979000 0.259106
417.197300 0.269064
417.415700 0.230531
417.634100 0.256598
417.852400 0.259879
418.070800 0.257113
418.289300 0.244037
418.507700 0.259526
418.726100 0.234718
418.944600 0.211379
419.163000 0.212919
419.381500 0.234454
419.600000 0.268604
419.818500 0.207829
420.037000 0.261964
420.255500 0.252546
420.474100 0.274951
420.692600 0.240634
420.911200 0.250993
421.129800 0.247682
421.348300 0.264328
421.566900 0.254469
421.785600 0.239352
422.004200 0.239004
422.222800 0.261161
422.441500 0.286042
422.660100 0.231477
422.878800 0.245614
423.097500 0.243544
423.316200 0.245084
423.534900 0.209212
423.753600 0.250975
423.972400 0.243218
424.191100 0.232810
424.409900 0.259305
424.628700 0.273456
424.847500 0.232822
425.066300 0.232646
425.285100 0.230834
425.503900 0.243389
425.722800 0.229767
425.941600 0.217268
426.160500 0.236780
426.379300 0.282641
426.598200 0.280903
426.817100 0.258746
427.036100 0.232101
427.255000 0.234677
427.473900 0.237904
427.692900 0.243811
427.911800 0.271801
428.130800 0.296203
428.349800 0.254898
428.568800 0.287025
428.787800 0.226102
429.006800 0.274698
429.225900 0.265414
429.444900 0.261227
429.664000 0.237027
429.883100 0.261903
430.102200 0.259143
430.321300 0.259718
430.540400 0.249254
430.759500 0.249904
430.978700 0.254087
431.197800 0.275327
431.417000 0.243966
431.636200 0.214036
431.855300 0.260157
432.074500 0.268541
432.293800 0.297039
432.513000 0.266659
432.732200 0.253466
432.951500 0.264339
433.170700 0.241909
433.390000 0.238831
433.609300 0.267819
433.828600 0.313482
434.047900 0.261264
434.267300 0.317740
434.486600 0.244997
434.705900 0.239184
434.925300 0.298271
435.144700 0.287446
435.364100 0.267096
435.583500 0.208694
435.802900 0.255152
436.022300 0.279161
436.241800 0.270788
436.461200 0.308706
436.680700 0.260672
436.900100 0.296071
437.119600 0.251704
437.339100 0.268697
437.558600 0.273687
437.778200 0.290729
437.997700 0.278435
438.217300 0.264999
438.436800 0.263727
438.656400 0.279685
438.876000 0.250659
439.095600 0.281469
439.315200 0.281839
439.534800 0.284302
439.754500 0.272433
439.974100 0.297539
440.193800 0.314079
440.413500 0.328379
440.633100 0.261680
440.852800 0.280106
441.072500 0.351886
441.292300 0.325347
441.512000 0.304413
441.731800 0.312889
441.951500 0.287838
442.171300 0.324868
442.391100 0.313115
442.610900 0.314732
442.830700 0.329186
443.050500 0.325691
443.270300 0.281744
443.490200 0.292454
443.710100 0.285398
443.929900 0.306682
444.149800 0.318634
444.369700 0.328969
444.589600 0.304353
444.809500 0.312612
445.029500 0.355898
445.249400 0.331280
445.469400 0.343870
445.689400 0.312187
445.909300 0.312771
446.129300 0.343597
446.349300 0.310853
446.569400 0.354898
446.789400 0.363405
447.009400 0.351400
447.229500 0.322485
447.449600 0.353372
447.669600 0.366189
447.889700 0.376212
448.109800 0.322082
448.330000 0.355391
448.550100 0.375979
448.770200 0.329028
448.990400 0.366738
449.210600 0.380516
449.430700 0.355840
449.650900 0.402516
449.871100 0.386117
450.091400 0.398505
450.311600 0.371648
450.531800 0.401811
450.752100 0.381736
450.972400 0.327086
451.192600 0.393095
451.412900 0.454499
451.633200 0.362365
451.853500 0.367483
452.073900 0.349087
452.294200 0.384283
452.514600 0.375883
452.734900 0.385660
452.955300 0.376050
453.175700 0.421205
453.396100 0.384232
453.616500 0.401988
453.836900 0.433428
454.057400 0.401534
454.277800 0.404719
454.498300 0.423492
454.718800 0.410954
454.939300 0.419409
455.159700 0.450629
455.380300 0.445460
455.600800 0.395359
455.821300 0.412575
456.041900 0.408779
456.262400 0.442272
456.483000 0.432525
456.703600 0.412249
456.924200 0.436483
457.144800 0.477936
457.365400 0.467232
457.586000 0.496806
457.806700 0.483701
458.027400 0.529221
458.248000 0.488313
458.468700 0.483230
458.689400 0.455138
458.910100 0.482772
459.130800 0.487175
459.351600 0.465611
459.572300 0.488641
459.793100 0.504212
460.013800 0.491504
460.234600 0.539363
460.455400 0.540855
460.676200 0.451454
460.897000 0.462595
461.117800 0.486167
461.338700 0.467308
461.559500 0.535632
461.780400 0.496680
462.001300 0.515236
462.222200 0.520396
462.443100 0.546363
462.664000 0.507456
462.884900 0.491520
463.105900 0.484361
463.326800 0.526587
463.547800 0.538882
463.768700 0.559814
463.989700 0.615464
464.210700 0.523343
464.431700 0.556045
464.652800 0.569859
464.873800 0.581758
465.094800 0.571583
465.315900 0.624705
465.537000 0.588230
465.758100 0.665914
465.979200 0.628523
466.200300 0.630667
466.421400 0.550204
466.642500 0.621831
466.863700 0.596323
467.084800 0.648845
467.306000 0.583339
467.527200 0.714808
467.748400 0.610073
467.969600 0.663151
468.190800 0.647654
468.412000 0.638750
468.633300 0.662338
468.854500 0.633647
469.075800 0.627090
469.297000 0.652098
469.518300 0.713832
469.739600 0.665274
469.961000 0.639005
470.182300 0.646957
470.403600 0.695850
470.625000 0.674251
470.846300 0.697380
471.067700 0.655279
471.289100 0.761249
471.510500 0.611368
471.731900 0.718683
471.953300 0.653873
472.174800 0.799371
472.396200 0.640873
472.617700 0.724580
472.839100 0.711528
473.060600 0.711466
473.282100 0.783641
473.503600 0.701067
473.725100 0.768253
473.946700 0.756414
474.168200 0.686674
474.389800 0.747649
474.611300 0.800076
474.832900 0.715367
475.054500 0.881486
475.276100 0.730318
475.497700 0.843931
475.719300 0.829435
475.941000 0.808332
476.162600 0.697684
476.384300 0.831177
476.606000 0.828300
476.827700 0.841619
477.049400 0.711114
477.271100 0.892948
477.492800 0.780236
477.714500 0.761155
477.936300 0.818349
478.158000 0.808723
478.379800 0.862017
478.601600 0.881091
478.823400 0.898847
479.045200 0.923674
479.267000 0.800322
479.488800 0.846740
479.710700 0.902975
479.932500 0.885193
480.154400 0.823024
480.376300 0.894033
480.598200 0.848376
480.820100 0.989394
481.042000 0.907386
481.263900 0.931686
481.485900 0.893314
481.707800 0.969496
481.929800 0.872789
482.151700 0.851929
482.373700 0.926483
482.595700 0.884424
482.817700 0.879013
483.039800 0.886976
483.261800 0.949806
483.483800 0.937973
483.705900 0.943035
483.928000 0.959708
484.150100 0.867778
484.372100 1.014829
484.594300 1.038929
484.816400 0.908257
485.038500 0.982695
485.260600 0.911598
485.482800 1.004613
485.705000 1.028384
485.927100 1.074592
486.149300 1.071357
486.371500 0.989110
486.593700 0.982184
486.816000 1.013434
487.038200 1.054944
487.260500 1.140395
487.482700 1.115541
487.705000 1.012760
487.927300 1.017075
488.149600 1.072583
488.371900 1.136073
488.594200 0.992794
488.816500 1.002961
489.038900 1.169539
489.261200 1.186003
489.483600 0.925109
489.706000 1.111198
489.928400 0.944878
490.150800 1.013920
490.373200 0.954672
490.595600 1.247336
490.818000 1.072081
491.040500 1.053516
491.263000 0.997153
491.485400 1.274669
491.707900 1.041654
491.930400 1.044486
492.152900 1.151989
492.375500 1.005893
492.598000 1.048868
492.820500 1.269158
493.043100 1.064861
493.265700 1.108941
493.488200 1.161940
493.710800 1.170976
493.933400 1.014734
494.156100 1.272855
494.378700 1.299690
494.601300 1.222614
494.824000 1.053839
495.046600 1.164390
495.269300 1.303183
495.492000 1.207344
495.714700 1.142298
495.937400 1.248643
496.160100 1.029770
496.382900 1.126487
496.605600 1.317511
496.828400 1.127033
497.051100 1.162784
497.273900 1.184861
497.496700 1.286844
497.719500 1.211541
497.942300 1.274537
498.165200 1.263968
498.388000 1.234049
498.610900 1.209726
498.833700 1.190825
499.056600 1.193725
499.279500 1.141963
499.502400 1.273378
499.725300 1.219159
499.948200 1.079932
500.171200 1.129094
500.394100 1.215747
500.617100 1.321651
500.840000 1.155370
501.063000 1.169334
501.286000 1.196121
501.509000 1.162614
501.732000 1.494860
501.955100 1.219794
502.178100 1.175117
502.401200 1.152663
502.624200 1.150486
502.847300 1.147327
503.070400 1.326770
503.293500 1.035193
503.516600 1.220920
503.739700 1.450651
503.962800 1.115035
504.186000 1.181934
504.409200 1.388720
504.632300 1.067214
504.855500 1.168438
505.078700 1.292851
505.301900 1.212441
505.525100 1.090225
505.748300 1.110793
505.971600 1.055820
506.194800 1.241939
506.418100 1.190348
506.641400 1.179369
506.864700 1.358404
507.088000 1.225594
507.311300 1.232009
507.534600 1.245344
507.757900 1.188357
507.981300 1.229680
508.204600 1.163990
508.428000 1.262878
508.651400 1.226394
508.874800 1.143643
509.098200 1.358527
509.321600 1.258046
509.545000 1.154406
509.768500 1.145506
509.991900 1.205744
510.215400 1.196129
510.438800 1.079979
510.662300 1.122978
510.885800 1.278201
511.109300 1.216713
511.332900 1.255015
511.556400 1.282198
511.779900 1.321833
512.003500 1.420541
512.227000 1.161250
512.450600 1.410993
512.674200 1.255205
512.897800 1.087717
513.121400 1.286191
513.345100 1.090393
513.568700 1.138883
513.792300 1.336033
514.016000 1.164429
514.239700 1.555360
514.463400 1.294910
514.687100 1.330901
514.910800 1.278554
515.134500 1.416680
515.358200 1.129846
515.581900 1.136826
515.805700 1.207738
516.029500 1.041894
516.253200 1.342927
516.477000 1.195535
516.700800 1.071625
516.924600 1.088471
517.148500 1.184248
517.372300 1.028949
517.596100 1.234054
517.820000 1.106058
518.043900 1.139744
518.267700 1.248370
518.491600 1.265886
518.715500 1.133860
518.939500 1.122537
519.163400 1.242775
519.387300 1.099493
519.611300 1.210764
519.835200 1.148343
520.059200 1.061953
520.283200 1.100050
520.507200 1.133804
520.731200 1.026026
520.955200 1.109447
521.179200 1.274339
521.403300 1.074418
521.627300 1.475595
521.851400 1.075813
522.075500 1.084907
522.299600 0.995405
522.523700 0.984005
522.747800 1.115527
522.971900 0.936022
523.196000 0.896167
523.420200 1.236610
523.644300 1.038529
523.868500 1.196367
524.092700 1.099729
524.316900 1.166443
524.541100 1.066119
524.765300 0.893111
524.989500 0.963720
525.213800 1.164344
525.438000 0.976181
525.662300 1.015484
525.886500 1.041171
526.110800 0.927288
526.335100 1.069942
526.559400 0.990619
526.783700 0.894341
527.008100 0.965412
527.232400 1.000749
527.456800 0.986933
527.681100 0.851182
527.905500 1.012726
528.129900 0.909369
528.354300 0.923235
528.578700 0.980231
528.803100 1.044624
529.027600 0.846611
529.252000 0.984295
529.476500 0.942488
529.700900 0.896877
529.925400 0.957290
530.149900 0.928566
530.374400 0.871469
530.598900 0.984101
530.823400 0.854739
531.048000 0.912180
531.272500 1.058946
531.497100 0.885097
531.721700 0.870538
531.946200 0.905921
532.170800 0.835620
532.395400 1.139730
532.620000 0.853285
532.844700 0.786897
533.069300 0.806270
533.294000 0.948901
533.518600 0.729537
533.743300 0.814086
533.968000 0.826598
534.192700 0.796227
534.417400 0.905659
534.642100 0.774917
534.866800 0.891505
535.091600 0.883697
535.316300 0.821279
535.541100 0.770698
535.765900 0.814600
535.990700 0.748656
536.215500 0.731300
536.440300 0.735352
536.665100 0.755346
536.889900 0.760705
537.114800 0.764371
537.339600 0.831257
537.564500 0.752584
537.789400 0.736774
538.014300 0.740953
538.239200 0.745883
538.464100 0.736682
538.689000 0.736233
538.913900 0.701226
539.138900 0.708093
539.363800 0.639774
539.588800 0.700965
539.813800 0.822156
540.038800 0.684643
540.263800 0.761512
540.488800 0.677198
540.713800 0.672067
540.938900 0.625461
541.163900 0.659340
541.389000 0.679488
541.614000 0.615586
541.839100 0.629894
542.064200 0.655806
542.289300 0.666599
542.514400 0.667817
542.739600 0.683690
542.964700 0.685060
543.189900 0.646115
543.415000 0.610746
543.640200 0.637783
543.865400 0.637331
544.090600 0.584537
544.315800 0.596275
544.541000 0.668108
544.766200 0.649361
544.991500 0.573293
545.216700 0.601188
545.442000 0.563490
545.667300 0.565207
545.892600 0.612315
546.117900 0.578426
546.343200 0.533059
546.568500 0.507282
546.793800 0.527789
547.019200 0.549473
547.244500 0.601869
547.469900 0.537337
547.695300 0.491639
547.920600 0.530744
548.146000 0.514664
548.371500 0.488146
548.596900 0.521209
548.822300 0.492452
549.047800 0.536835
549.273200 0.476345
549.498700 0.448682
549.724200 0.443225
549.949600 0.476708
550.175100 0.454776
550.400700 0.481656
550.626200 0.456643
550.851700 0.420576
551.077300 0.459991
551.302800 0.500470
551.528400 0.417750
551.754000 0.430062
551.979600 0.455849
552.205200 0.417937
552.430800 0.493423
552.656400 0.458969
552.882000 0.451478
553.107700 0.438617
553.333300 0.366563
553.559000 0.416999
553.784700 0.434055
554.010400 0.431686
554.236100 0.394299
554.461800 0.414239
554.687500 0.396809
554.913200 0.412364
555.139000 0.354375
555.364800 0.391537
555.590500 0.374413
555.816300 0.360245
556.042100 0.393482
556.267900 0.393253
556.493700 0.389842
556.719500 0.354982
556.945400 0.385994
557.171200 0.389221
557.397100 0.378548
557.623000 0.369085
557.848800 0.343923
558.074700 0.334104
558.300600 0.318839
558.526600 0.331061
558.752500 0.319456
558.978400 0.358655
559.204400 0.289501
559.430300 0.285371
559.656300 0.317441
559.882300 0.341355
560.108300 0.266429
560.334300 0.291386
560.560300 0.319689
560.786300 0.315907
561.012400 0.292350
561.238400 0.312437
561.464500 0.275021
561.690500 0.295192
561.916600 0.288611
562.142700 0.276276
562.368800 0.305125
562.594900 0.305332
562.821100 0.299912
563.047200 0.276746
563.273300 0.279505
563.499500 0.250831
563.725700 0.259564
563.951900 0.267309
564.178100 0.264948
564.404300 0.261972
564.630500 0.244046
564.856700 0.276147
565.082900 0.275808
565.309200 0.253053
565.535500 0.247911
565.761700 0.218898
565.988000 0.247799
566.214300 0.227654
566.440600 0.217853
566.666900 0.218102
566.893200 0.234140
567.119600 0.211248
567.345900 0.232350
567.572300 0.232638
567.798700 0.206567
568.025000 0.235619
568.251400 0.241231
568.477800 0.209321
568.704300 0.189668
568.930700 0.219046
569.157100 0.229855
569.383600 0.222595
569.610000 0.213880
569.836500 0.206167
570.063000 0.202012
570.289500 0.210953
570.516000 0.219347
570.742500 0.207306
570.969000 0.212768
571.195600 0.210039
571.422100 0.200403
571.648700 0.201435
571.875200 0.207739
572.101800 0.203190
572.328400 0.195174
572.555000 0.195220
572.781600 0.203699
573.008200 0.196696
573.234900 0.209568
573.461500 0.191971
573.688200 0.184479
573.914900 0.191065
574.141500 0.191739
574.368200 0.179037
574.594900 0.174692
574.821600 0.183395
575.048400 0.186090
575.275100 0.177286
575.501800 0.191731
575.728600 0.186565
575.955400 0.179778
576.182100 0.186677
576.408900 0.176727
576.635700 0.167387
576.862600 0.179986
577.089400 0.156812
577.316200 0.166303
577.543100 0.164504
577.769900 0.156145
577.996800 0.158789
578.223700 0.163523
578.450500 0.161482
578.677400 0.164272
578.904400 0.166119
579.131300 0.159099
579.358200 0.160238
579.585100 0.150372
579.812100 0.158438
580.039100 0.151162
580.266000 0.148341
580.493000 0.153258
580.720000 0.150056
580.947000 0.149163
581.174100 0.142083
581.401100 0.135107
581.628100 0.136750
581.855200 0.133442
582.082200 0.132660
582.309300 0.135747
582.536400 0.142669
582.763500 0.134941
582.990600 0.132662
583.217700 0.128730
583.444900 0.132251
583.672000 0.144350
583.899100 0.146992
584.126300 0.147089
584.353500 0.126293
584.580700 0.138398
584.807900 0.146010
585.035100 0.134077
585.262300 0.138238
585.489500 0.124578
585.716700 0.123583
585.944000 0.125624
586.171300 0.123050
586.398500 0.114261
586.625800 0.122327
586.853100 0.117440
587.080400 0.120579
587.307700 0.116755
587.535000 0.125619
587.762400 0.120857
587.989700 0.118825
588.217100 0.117252
588.444500 0.121737
588.671800 0.116863
588.899200 0.109360
589.126600 0.107339
589.354000 0.119418
589.581500 0.118315
589.808900 0.120908
590.036300 0.112275
590.263800 0.113997
590.491300 0.107891
590.718700 0.110951
590.946200 0.121924
591.173700 0.116608
591.401200 0.127840
591.628800 0.112432
591.856300 0.104109
592.083800 0.107800
592.311400 0.107215
592.538900 0.116223
592.766500 0.105944
592.994100 0.118419
593.221700 0.110669
593.449300 0.105431
593.676900 0.103765
593.904600 0.105615
594.132200 0.109963
594.359800 0.103314
594.587500 0.100874
594.815200 0.100498
595.042900 0.110519
595.270500 0.116398
595.498300 0.097749
595.726000 0.112067
595.953700 0.108864
596.181400 0.103912
596.409200 0.111124
596.636900 0.103038
596.864700 0.115086
597.092500 0.103838
597.320300 0.115146
597.548100 0.115447
597.775900 0.119803
598.003700 0.105353
598.231500 0.114205
598.459400 0.109393
598.687200 0.105632
598.915100 0.104650
599.143000 0.093688
599.370900 0.104856
599.598800 0.106491
599.826700 0.104751
600.054600 0.100148
600.282500 0.097611
600.510500 0.100020
600.738400 0.083987
600.966400 0.081319
601.194400 0.085106
601.422300 0.099335
601.650300 0.092110
601.878300 0.095105
602.106400 0.099921
602.334400 0.109074
602.562400 0.091581
602.790500 0.104120
603.018500 0.094731
603.246600 0.097943
603.474700 0.091227
603.702800 0.104175
603.930900 0.097922
604.159000 0.087145
604.387100 0.107368
604.615200 0.089259
604.843400 0.093099
605.071500 0.104489
605.299700 0.099973
605.527900 0.102345
605.756100 0.091563
605.984300 0.081397
606.212500 0.092453
606.440700 0.079051
606.668900 0.079517
606.897200 0.080498
607.125400 0.090499
607.353700 0.078897
607.581900 0.082789
607.810200 0.078533
608.038500 0.098445
608.266800 0.085597
608.495100 0.086359
608.723500 0.069180
608.951800 0.089824
609.180100 0.093701
609.408500 0.073927
609.636900 0.081146
609.865300 0.079519
610.093600 0.092592
610.322000 0.078711
610.550500 0.082659
610.778900 0.088754
611.007300 0.080183
611.235700 0.093689
611.464200 0.094919
611.692700 0.081566
611.921100 0.072265
612.149600 0.089181
612.378100 0.081957
612.606600 0.091707
612.835100 0.095480
613.063700 0.085983
613.292200 0.091563
613.520800 0.083521
613.749300 0.081337
613.977900 0.098820
614.206500 0.079081
614.435100 0.093138
614.663700 0.095295
614.892300 0.089839
615.120900 0.079661
615.349500 0.099536
615.578200 0.079694
615.806800 0.081660
616.035500 0.080664
616.264200 0.076798
616.492900 0.095684
616.721600 0.079806
616.950300 0.083884
617.179000 0.075271
617.407700 0.074694
617.636500 0.076304
617.865200 0.088463
618.094000 0.080213
618.322700 0.077030
618.551500 0.065665
618.780300 0.071861
619.009100 0.080460
619.237900 0.086592
619.466700 0.074201
619.695600 0.072507
619.924400 0.080410
620.153300 0.082406
620.382100 0.073071
620.611000 0.070705
620.839900 0.067453
621.068800 0.069359
621.297700 0.094277
621.526600 0.068979
621.755600 0.069785
621.984500 0.080128
622.213500 0.068220
622.442400 0.069328
622.671400 0.074801
622.900400 0.064840
623.129400 0.087010
623.358400 0.065477
623.587400 0.084007
623.816400 0.081375
624.045400 0.081328
624.274500 0.079316
624.503500 0.057606
624.732600 0.067190
624.961700 0.075019
625.190800 0.066041
625.419900 0.071163
625.649000 0.079584
625.878100 0.075523
626.107200 0.055641
626.336400 0.059976
626.565500 0.085500
626.794700 0.072675
627.023800 0.053158
627.253000 0.068168
627.482200 0.100627
627.711400 0.065434
627.940600 0.082057
628.169800 0.080701
628.399100 0.072974
628.628300 0.075649
628.857600 0.057940
629.086800 0.086793
629.316100 0.060093
629.545400 0.059880
629.774700 0.064652
630.004000 0.067677
630.233300 0.059901
630.462600 0.066626
630.692000 0.040656
630.921300 0.078865
631.150700 0.073582
631.380100 0.070267
631.609400 0.086608
631.838800 0.082643
632.068200 0.067899
632.297600 0.062889
632.527100 0.059024
632.756500 0.064206
632.985900 0.087167
633.215400 0.094042
633.444800 0.079651
633.674300 0.082753
633.903800 0.063020
634.133300 0.064773
634.362800 0.060786
634.592300 0.076039
634.821800 0.069786
635.051400 0.089954
635.280900 0.089077
635.510500 0.026018
635.740000 0.062503
635.969600 0.065944
636.199200 0.051705
636.428800 0.068563
636.658400 0.062140
636.888000 0.057923
637.117700 0.059604
637.347300 0.092625
637.577000 0.060017
637.806600 0.076562
638.036300 0.073081
638.266000 0.036744
638.495700 0.067509
638.725400 0.082033
638.955100 0.059394
639.184800 0.070006
639.414500 0.098006
639.644300 0.069494
639.874000 0.075199
640.103800 0.059392
640.333600 0.107113
640.563300 0.039369
640.793100 0.069256
641.022900 0.060427
641.252800 0.062363
641.482600 0.064449
641.712400 0.039421
641.942300 0.060438
642.172100 0.114395
642.402000 0.046018
642.631900 0.015663
642.861700 0.039368
643.091600 0.052964
643.321600 0.055359
643.551500 0.028618
643.781400 0.074603
644.011300 0.069809
644.241300 0.079699
644.471200 0.081353
644.701200 0.056355
644.931200 0.089630
645.161200 0.096110
645.391200 0.085125
645.621200 0.076716
645.851200 0.060089
646.081200 0.087478
646.311300 0.073982
646.541300 0.097873
646.771400 0.028036
647.001500 0.108111
647.231600 0.075583
647.461600 0.084146
647.691800 0.080052
647.921900 0.076543
648.152000 0.066258
648.382100 0.018457
648.612300 0.056490
648.842400 0.047631
649.072600 0.077064
649.302800 0.052629
649.532900 0.084342
649.763100 0.059258
649.993300 0.073327
650.223600 0.065612
650.453800 0.055490
650.684000 0.086887
650.914300 0.062998
651.144500 0.077619
651.374800 0.071065
651.605100 0.082400
651.835400 0.065305
652.065700 0.061704
652.296000 0.034477
652.526300 0.041989
652.756600 0.071431
652.987000 0.041997
653.217300 0.035690
653.447700 0.071844
653.678000 0.068440
653.908400 0.034456
654.138800 0.071486
654.369200 0.093553
654.599600 0.079637
654.830000 0.090566
655.060500 0.122079
655.290900 0.159330
655.521300 0.133963
655.751800 0.100417
655.982300 0.002910
656.212800 0.000974
656.443300 0.001458
656.673800 0.001232
656.904300 0.034892
657.134800 0.089033
657.365300 0.088578
657.595900 0.081977
657.826400 0.089052
658.057000 0.094471
658.287500 0.099895
658.518100 0.086244
658.748700 0.084917
658.979300 0.100396
659.209900 0.113626
659.440600 0.142453
659.671200 0.155354
659.901800 0.145798
660.132500 0.124834
660.363200 0.125768
660.593800 0.125149
660.824500 0.081223
661.055200 0.058958
661.285900 0.087693
661.516600 0.071560
661.747400 0.073764
661.978100 0.028910
662.208800 0.108481
662.439600 0.054350
662.670400 0.064853
662.901100 0.070721
663.131900 0.101745
663.362700 0.056239
663.593500 0.084275
663.824300 0.082180
664.055200 0.035385
664.286000 0.048802
664.516800 0.073702
664.747700 0.077716
664.978600 0.083198
665.209400 0.035733
665.440300 0.088719
665.671200 0.095989
665.902100 0.104491
666.133000 0.076826
666.364000 0.036157
666.594900 0.045207
666.825900 0.069958
667.056800 0.115787
667.287800 0.050645
667.518800 0.056234
667.749700 0.046141
667.980700 0.063085
668.211700 0.007283
668.442800 0.065476
668.673800 0.075525
668.904800 0.070249
669.135900 0.099643
669.366900 0.087684
669.598000 0.054637
669.829100 0.077627
670.060200 0.052669
670.291300 0.116223
670.522400 0.060526
670.753500 0.070627
670.984600 0.083034
671.215700 0.073406
671.446900 0.105534
671.678100 0.080928
671.909200 0.076433
672.140400 0.094361
672.371600 0.067952
672.602800 0.073226
672.834000 0.072670
673.065200 0.065654
673.296400 0.038170
673.527700 0.076849
673.758900 0.040755
673.990200 0.062758
674.221400 0.098846
674.452700 0.071507
674.684000 0.049072
674.915300 0.080780
675.146600 0.049826
675.377900 0.037906
675.609300 0.065851
675.840600 0.093633
676.071900 0.064211
676.303300 0.069678
676.534700 0.064087
676.766100 0.054087
676.997400 0.083658
677.228800 0.040700
677.460200 0.063859
677.691700 0.100906
677.923100 0.060411
678.154500 0.111540
678.386000 0.067324
678.617400 0.066145
678.848900 0.074122
679.080400 0.063757
679.311900 0.072580
679.543400 0.079375
679.774900 0.053443
680.006400 0.070666
680.237900 0.075156
680.469400 0.065042
680.701000 0.056698
680.932500 0.089393
681.164100 0.061263
681.395700 0.078656
681.627300 0.086455
681.858900 0.070601
682.090500 0.066025
682.322100 0.035330
682.553700 0.043388
682.785400 0.076968
683.017000 0.126045
683.248700 0.051966
683.480300 0.064689
683.712000 0.049193
683.943700 0.046235
684.175400 0.112784
684.407100 0.062268
684.638800 0.052097
684.870500 0.061948
685.102300 0.069362
685.334000 0.074644
685.565800 0.086824
685.797500 0.058066
686.029300 0.053319
686.261100 0.069909
686.492900 0.082469
686.724700 0.073843
686.956500 0.056299
687.188300 0.075263
687.420200 0.089352
687.652000 0.036257
687.883800 0.067413
688.115700 0.069885
688.347600 0.080925
688.579500 0.072347
688.811400 0.046373
689.043300 0.094393
689.275200 0.076977
689.507100 0.047331
689.739000 0.054907
689.971000 0.050745
690.202900 0.078605
690.434900 0.086322
690.666900 0.076479
690.898800 0.081603
691.130800 0.073681
691.362800 0.090165
691.594800 0.055656
691.826900 0.092856
692.058900 0.112619
692.290900 0.093222
692.523000 0.070922
692.755000 0.079405
692.987100 0.079997
693.219200 0.055914
693.451300 0.058983
693.683400 0.084090
693.915500 0.026059
694.147600 0.082593
694.379700 0.049374
694.611900 0.076883
694.844000 0.048164
695.076200 0.067140
695.308300 0.072086
695.540500 0.064980
695.772700 0.025660
696.004900 0.102488
696.237100 0.064683
696.469300 0.043583
696.701600 0.101323
696.933800 0.045128
697.166000 0.063944
697.398300 0.106154
697.630600 0.053152
697.862800 0.072390
698.095100 0.087349
698.327400 0.097755
698.559700 0.083576
698.792000 0.044195
699.024300 0.048824
699.256700 0.070102
699.489000 0.062318
699.721400 0.098025
699.953700 0.056293
700.186100 0.066859
700.418500 0.051116
700.650900 0.038464
700.883300 0.068362
701.115700 0.076222
701.348100 0.025944
701.580600 0.099247
701.813000 0.055310
702.045400 0.065184
702.277900 0.072355
702.510400 0.090393
702.742900 0.060269
702.975300 0.067104
703.207800 0.042684
703.440300 0.069297
703.672900 0.072334
703.905400 0.076882
704.137900 0.045372
704.370500 0.042020
704.603000 0.109904
704.835600 0.092947
705.068200 0.044206
705.300800 0.090757
705.533400 0.086726
705.766000 0.040770
705.998600 0.109726
706.231200 0.031668
706.463800 0.080755
706.696500 0.104934
706.929100 0.054566
707.161800 0.040217
707.394500 0.060165
707.627200 0.068414
707.859900 0.089446
708.092600 0.063436
708.325300 0.066745
708.558000 0.054137
708.790700 0.053251
709.023500 0.084944
709.256200 0.068374
709.489000 0.047037
709.721700 0.058024
709.954500 0.053224
710.187300 0.042521
710.420100 0.069602
710.652900 0.064320
710.885700 0.058402
711.118600 0.068320
711.351400 0.051318
711.584200 0.064670
711.817100 0.089152
712.050000 0.077773
712.282800 0.059537
712.515700 0.075306
712.748600 0.070873
712.981500 0.088490
713.214400 0.088158
713.447400 0.042029
713.680300 0.051886
713.913200 0.076009
714.146200 0.070002
714.379100 0.069937
714.612100 0.048134
714.845100 0.104450
715.078100 0.069863
715.311100 0.015808
715.544100 0.095370
715.777100 0.058306
716.010200 0.078266
716.243200 0.034727
716.476200 0.065081
716.709300 0.058731
716.942400 0.061341
717.175400 0.069586
717.408500 0.058809
717.641600 0.033677
717.874700 0.029769
718.107800 0.083845
718.341000 0.084795
718.574100 0.038142
718.807200 0.088870
719.040400 0.094521
719.273600 0.059647
719.506700 0.079808
719.739900 0.064119
719.973100 0.066087
720.206300 0.083102
720.439500 0.078391
720.672700 0.051845
720.906000 0.054590
721.139200 0.063501
721.372500 0.066810
721.605700 0.079373
721.839000 0.064175
722.072300 0.093419
722.305500 0.063808
722.538800 0.052377
722.772100 0.081074
723.005500 0.050214
723.238800 0.106551
723.472100 0.052776
723.705500 0.057482
723.938800 0.056666
724.172200 0.059945
724.405600 0.040545
724.638900 0.093202
724.872300 0.077010
725.105700 0.056167
725.339100 0.084692
725.572600 0.075952
725.806000 0.067523
726.039400 0.067191
726.272900 0.100847
726.506300 0.077445
726.739800 0.076024
726.973300 0.093461
727.206800 0.056725
727.440300 0.101454
727.673800 0.048497
727.907300 0.076651
728.140800 0.073391
728.374300 0.099887
728.607900 0.075030
728.841400 0.096180
729.075000 0.063080
729.308600 0.057407
729.542100 0.059221
729.775700 0.063717
730.009300 0.083946
730.242900 0.042764
730.476600 0.068083
730.710200 0.073561
730.943800 0.084499
731.177500 0.078777
731.411100 0.057345
731.644800 0.080749
731.878500 0.053678
732.112200 0.065607
732.345800 0.061694
732.579500 0.099749
732.813300 0.080976
733.047000 0.074064
733.280700 0.086168
733.514500 0.067755
733.748200 0.056194
733.982000 0.113268
734.215700 0.074684
734.449500 0.095140
734.683300 0.074498
734.917100 0.057583
735.150900 0.065746
735.384700 0.063052
735.618500 0.067185
735.852400 0.066454
736.086200 0.065470
736.320100 0.057256
736.553900 0.089176
736.787800 0.066396
737.021700 0.065358
737.255600 0.054803
737.489500 0.058129
737.723400 0.060484
737.957300 0.075906
738.191200 0.064692
738.425200 0.070649
738.659100 0.050126
738.893100 0.051775
739.127100 0.081457
739.361000 0.061471
739.595000 0.063852
739.829000 0.037233
740.063000 0.054818
740.297000 0.045863
740.531000 0.058594
740.765100 0.079697
740.999100 0.092559
741.233200 0.063744
741.467200 0.105375
741.701300 0.089572
741.935400 0.080390
742.169500 0.044826
742.403600 0.063516
742.637700 0.062040
742.871800 0.036003
743.105900 0.048201
743.340000 0.055166
743.574200 0.068575
743.808300 0.039556
744.042500 0.066324
744.276700 0.067159
744.510800 0.047332
744.745000 0.033005
744.979200 0.086752
745.213400 0.057994
745.447700 0.047948
745.681900 0.048042
745.916100 0.087776
746.150400 0.065741
746.384600 0.071054
746.618900 0.062620
746.853200 0.061845
747.087400 0.076191
747.321700 0.064120
747.556000 0.054737
747.790300 0.080520
748.024700 0.016026
748.259000 0.083219
748.493300 0.076197
748.727700 0.020698
748.962000 0.045219
749.196400 0.053034
749.430800 0.088866
749.665200 0.044731
749.899500 0.061528
750.133900 0.073137
750.368400 0.075641
750.602800 0.067325
750.837200 0.052260
751.071700 0.059003
751.306100 0.052377
751.540600 0.061594
751.775000 0.094723
752.009500 0.082738
752.244000 0.067947
752.478500 0.061768
752.713000 0.075883
752.947500 0.053551
753.182000 0.090747
753.416600 0.050915
753.651100 0.113237
753.885600 0.058168
754.120200 0.059673
754.354800 0.052267
754.589400 0.072267
754.823900 0.077252
755.058500 0.080807
755.293100 0.051659
755.527800 0.065093
755.762400 0.047385
755.997000 0.080556
756.231700 0.054531
756.466300 0.077021
756.701000 0.082607
756.935600 0.084668
757.170300 0.064717
757.405000 0.086906
757.639700 0.066325
757.874400 0.090476
758.109100 0.110621
758.343800 0.083975
758.578600 0.060557
758.813300 0.088691
759.048100 0.070860
759.282800 0.064875
759.517600 0.073110
759.752400 0.065605
759.987200 0.061123
760.222000 0.069781
760.456800 0.064340
760.691600 0.080548
760.926400 0.073402
761.161300 0.064085
761.396100 0.069828
761.631000 0.080166
761.865800 0.086874
762.100700 0.071282
762.335600 0.067602
762.570500 0.075588
762.805400 0.067437
763.040300 0.078241
763.275200 0.084602
763.510100 0.079511
763.745000 0.093953
763.980000 0.079881
764.214900 0.060656
764.449900 0.066125
764.684900 0.078939
764.919800 0.081856
765.154800 0.051250
765.389800 0.073934
765.624800 0.087398
765.859900 0.054932
766.094900 0.075229
766.329900 0.068144
766.565000 0.100568
766.800000 0.057845
767.035100 0.074478
767.270100 0.054530
767.505200 0.107773
767.740300 0.047335
767.975400 0.043558
768.210500 0.046463
768.445600 0.060177
768.680800 0.072005
768.915900 0.076484
769.151000 0.084668
769.386200 0.078543
769.621400 0.053285
769.856500 0.109654
770.091700 0.075069
770.326900 0.072690
770.562100 0.047389
770.797300 0.073493
771.032500 0.054083
771.267700 0.079049
771.503000 0.074234
771.738200 0.085927
771.973500 0.053099
772.208700 0.086257
772.444000 0.091170
772.679300 0.061940
772.914600 0.071977
773.149900 0.054308
773.385200 0.024184
773.620500 0.089930
773.855800 0.079036
774.091100 0.068610
774.326500 0.111338
774.561800 0.064929
774.797200 0.118327
775.032600 0.096187
775.267900 0.012567
775.503300 0.077566
775.738700 0.074962
775.974100 0.074010
776.209500 0.073714
776.445000 0.063605
776.680400 0.047714
776.915800 0.092830
777.151300 0.057184
777.386800 0.043168
777.622200 0.040767
777.857700 0.069136
778.093200 0.052614
778.328700 0.043192
778.564200 0.054236
778.799700 0.065836
779.035200 0.068527
779.270700 0.045906
779.506300 0.053819
779.741800 0.042171
779.977400 0.044514
780.213000 0.042580
780.448500 0.069553
780.684100 0.071469
780.919700 0.058342
781.155300 0.044335
781.390900 0.072440
781.626500 0.084382
781.862200 0.089969
782.097800 0.075666
782.333500 0.082880
782.569100 0.076892
782.804800 0.074008
783.040500 0.061497
783.276100 0.040720
783.511800 0.085816
783.747500 0.074500
783.983200 0.054507
784.219000 0.042276
784.454700 0.054442
784.690400 0.105329
784.926200 0.077846
785.161900 0.065288
785.397700 0.058218
785.633500 0.045557
785.869200 0.063048
786.105000 0.066286
786.340800 0.081896
786.576600 0.057608
786.812400 0.064446
787.048300 0.042903
787.284100 0.095436
787.519900 0.075605
787.755800 0.057645
787.991700 0.059027
788.227500 0.041941
788.463400 0.055059
788.699300 0.074759
788.935200 0.082738
789.171100 0.072718
789.407000 0.051649
789.642900 0.097448
789.878900 0.050000
790.114800 0.020910
790.350700 0.047098
790.586700 0.073634
790.822700 0.080905
791.058600 0.059818
791.294600 0.067966
791.530600 0.036678
791.766600 0.100600
792.002600 0.102130
792.238700 0.056751
792.474700 0.104749
792.710700 0.073063
792.946800 0.022303
793.182800 0.114748
793.418900 0.102193
793.655000 0.073977
793.891000 0.109173
794.127100 0.099908
794.363200 0.051478
794.599300 0.091375
794.835500 0.065293
795.071600 0.098726
795.307700 0.109646
795.543900 0.074051
795.780000 0.087329
796.016200 0.061656
796.252300 0.073986
796.488500 0.031585
796.724700 0.101979
796.960900 0.049942
797.197100 0.078115
797.433300 0.055440
797.669500 0.075171
797.905800 0.088299
798.142000 0.056989
798.378300 0.113527
798.614500 0.045777
798.850800 0.064618
799.087100 0.078785
799.323300 0.046159
799.559600 0.062660
799.795900 0.041838
800.032200 0.094163
800.268600 0.004100
800.504900 0.091724
800.741200 0.012093
800.977600 0.086396
801.213900 0.040641
801.450300 0.116388
801.686700 0.057151
801.923000 0.080750
802.159400 0.107213
802.395800 0.051667
802.632200 0.110663
802.868600 0.038602
803.105100 0.113080
803.341500 0.071976
803.577900 0.133661
803.814400 0.084849
804.050800 0.015113
804.287300 0.091303
804.523800 0.037175
804.760300 0.126057
804.996800 0.039781
805.233300 0.084389
805.469800 0.116209
805.706300 0.015819
805.942800 0.112274
806.179400 0.066539
806.415900 0.071713
806.652500 0.069225
806.889000 0.129172
807.125600 0.047582
807.362200 0.067647
807.598800 0.060191
807.835400 0.054224
808.072000 0.093251
808.308600 0.090232
808.545200 0.084567
808.781800 0.045992
809.018500 0.082664
809.255100 0.029241
809.491800 0.054415
809.728400 0.061190
809.965100 0.050979
810.201800 0.042746
810.438500 -0.010970
810.675200 0.021071
810.911900 0.058663
811.148600 0.076512
811.385300 0.041509
811.622100 0.069424
811.858800 0.053200
812.095600 0.039093
812.332300 0.130596
812.569100 0.081482
812.805900 0.001450
813.042700 0.085563
813.279500 0.080946
813.516300 0.009048
813.753100 0.130932
813.989900 0.097220
814.226700 0.077060
814.463600 0.028711
814.700400 0.061449
814.937300 0.040883
815.174200 0.045607
815.411000 0.020600
815.647900 0.017627
815.884800 0.079972
816.121700 0.087732
816.358600 0.068374
816.595500 0.068140
816.832400 0.019647
817.069400 0.042879
817.306300 0.040565
817.543300 0.052735
817.780200 0.014429
818.017200 0.111503
818.254200 0.087014
818.491200 -0.021334
818.728200 0.126019
818.965200 0.026826
819.202200 0.023287
819.439200 0.062562
819.676200 0.005006
819.913300 0.094160
820.150300 0.044714
820.387400 0.086815
820.624400 0.122156
820.861500 0.075803
821.098600 0.072450
821.335700 0.135161
821.572700 0.118045
821.809900 0.050449
822.047000 0.092842
822.284100 -0.010258
822.521200 0.107759
822.758400 0.051117
822.995500 0.072766
823.232700 0.068066
823.469800 0.082088
823.707000 0.019343
823.944200 0.027018
824.181400 0.128281
824.418600 0.104402
824.655800 -0.009618
824.893000 0.044346
825.130200 0.058490
825.367500 0.034968
825.604700 0.127308
825.841900 -0.000910
826.079200 0.048161
826.316500 0.188256
826.553700 0.054406
826.791000 0.081471
827.028300 0.127174
827.265600 0.074254
827.502900 0.105559
827.740200 0.050776
827.977600 0.023762
828.214900 0.052061
828.452200 0.079525
828.689600 0.096224
828.927000 0.022534
829.164300 -0.013657
829.401700 0.011510
829.639100 0.056257
829.876500 0.012105
830.113900 0.100131
830.351300 0.083297
830.588700 0.090122
830.826100 0.047721
831.063600 0.011349
831.301000 0.033716
831.538500 0.109016
831.775900 0.055935
832.013400 0.074014
832.250900 0.143601
832.488400 0.156519
832.725900 0.057565
832.963400 0.134534
833.200900 0.124757
833.438400 0.079581
833.675900 0.068496
833.913500 0.101074
834.151000 0.138943
834.388600 0.036044
834.626100 -0.029299
834.863700 0.101364
835.101300 0.043683
835.338900 0.008658
835.576500 -0.008625
835.814100 0.073472
836.051700 0.052979
836.289300 0.216737
836.526900 0.066273
836.764600 0.109349
837.002200 0.103226
837.239900 0.020399
837.477500 -0.003959
837.715200 -0.064034
837.952900 0.066794
838.190600 0.150823
838.428300 0.050329
838.666000 0.105228
838.903700 -0.009040
839.141400 0.094114
839.379100 -0.046449
839.616900 0.092545
839.854600 -0.009444
840.092400 0.088431
840.330200 0.021994
840.567900 0.068362
840.805700 0.079851
841.043500 0.119626
841.281300 0.147580
841.519100 0.027735
841.756900 0.001617
841.994700 -0.031259
842.232600 0.119053
842.470400 0.059297
842.708200 0.012625
842.946100 -0.017078
843.184000 -0.084774
843.421800 0.041040
843.659700 0.047286
843.897600 0.049293
844.135500 0.130823
844.373400 0.055680
844.611300 0.073405
844.849200 0.059929
845.087200 0.073155
845.325100 0.126333
845.563100 0.081024
845.801000 0.066947
846.039000 0.098693
846.277000 -0.003525
846.514900 -0.051172
846.752900 -0.040823
846.990900 -0.099933
847.228900 -0.158368
847.466900 0.140111
847.705000 0.093877
847.943000 0.008759
848.181000 0.179938
848.419100 0.202751
848.657100 0.099026
848.895200 -0.015322
849.133300 0.011128
849.371300 -0.002184
849.609400 0.111005
849.847500 0.037432
850.085600 -0.000705
850.323700 0.095323
850.561900 0.055746
850.800000 0.073517
851.038100 0.043387
851.276300 -0.046169
851.514400 -0.032624
851.752600 0.137938
851.990800 -0.053222
852.228900 -0.046222
852.467100 0.067831
852.705300 0.115342
852.943500 0.047151
853.181700 0.109281
853.420000 0.012620
853.658200 0.010445
853.896400 0.132768
854.134700 0.037130
854.372900 0.070493
854.611200 0.098166
854.849500 0.083849
855.087700 0.119504
855.326000 0.034119
855.564300 0.030634
855.802600 0.137110
856.040900 0.060345
856.279200 0.105099
856.517600 0.073489
856.755900 -0.020017
856.994200 0.016473
857.232600 0.046923
857.471000 0.069037
857.709300 0.091145
857.947700 0.027228
858.186100 0.124353
858.424500 0.010744
858.662900 0.063362
858.901300 0.127442
859.139700 0.068181
859.378100 0.023107
859.616600 0.070023
859.855000 0.020992
860.093500 0.077974
860.331900 0.046454
860.570400 0.163190
860.808900 0.184502
861.047300 0.103316
861.285800 0.027792
861.524300 0.260887
861.762800 0.206433
862.001300 0.029230
862.239900 0.223036
862.478400 0.056409
862.716900 0.002447
862.955500 0.040434
863.194000 0.067963
863.432600 0.192122
863.671200 0.250560
863.909800 0.027068
864.148300 0.093950
864.386900 0.004060
864.625500 0.109995
864.864200 0.081305
865.102800 -0.000580
865.341400 0.160459
865.580000 -0.028643
865.818700 0.105346
866.057300 0.122981
866.296000 0.096018
866.534700 -0.108393
866.773300 0.126324
867.012000 0.130323
867.250700 0.005065
867.489400 -0.068925
867.728100 -0.049640
867.966900 0.112182
868.205600 0.103063
868.444300 0.008642
868.683100 -0.029892
868.921800 -0.040203
869.160600 0.104577
869.399300 -0.028423
869.638100 -0.005459
869.876900 -0.042696
870.115700 -0.010160
870.354500 -0.103097
870.593300 0.016412
870.832100 0.110259
871.070900 -0.080421
871.309700 -0.087908
871.548600 0.104147
871.787400 0.011218
872.026300 -0.055973
872.265100 -0.026047
872.504000 -0.088025
872.742900 -0.026071
872.981800 0.205558
873.220700 -0.001381
873.459600 0.155076
873.698500 0.270325
873.937400 0.005162
874.176300 -0.069601
874.415300 0.201277
874.654200 -0.000594
874.893200 0.033831
875.132100 -0.024908
875.371100 0.121816
875.610100 0.095518
875.849100 0.119798
876.088000 0.113965
876.327000 -0.023255
876.566100 0.056189
876.805100 0.091827
877.044100 -0.026271
877.283100 -0.058262
877.522200 -0.039743
877.761200 -0.002045
878.000300 0.126788
878.239300 0.165250
878.478400 0.062949
878.717500 -0.067159
878.956600 0.045072
879.195700 0.218938
879.434800 0.018563
879.673900 0.102751
879.913000 0.039321
880.152100 0.091106
880.391300 0.047557
880.630400 0.170984
880.869600 -0.076179
881.108700 0.118463
881.347900 0.131149
881.587100 0.067592
881.826200 0.066350
882.065400 0.062974
882.304600 0.001100
882.543800 0.155513
882.783100 0.123337
883.022300 0.090485
883.261500 0.040753
883.500700 -0.002652
883.740000 0.051257
883.979200 0.126571
884.218500 0.068794
884.457800 0.076380
884.697100 0.152148
884.936300 0.174419
885.175600 0.094201
885.414900 -0.026185
885.654200 0.038010
885.893600 -0.060758
886.132900 0.024219
886.372200 0.073118
886.611600 -0.065721
886.850900 0.119237
887.090300 0.059664
887.329600 0.073937
887.569000 0.152076
887.808400 0.001757
888.047800 0.002328
888.287200 -0.008914
888.526600 0.125052
888.766000 -0.048787
889.005400 0.101928
889.244800 0.132241
889.484300 -0.001729
889.723700 0.069206
889.963200 0.008734
890.202600 0.057136
890.442100 0.041579
890.681600 -0.115073
890.921100 0.084014
891.160600 0.159989
891.400100 0.050579
891.639600 0.149576
891.879100 0.071864
892.118600 -0.015060
892.358100 0.071638
892.597700 0.014743
892.837200 0.161691
893.076800 0.105820
893.316300 0.054243
893.555900 0.069063
893.795500 0.188261
894.035100 -0.007765
894.274700 0.287450
894.514300 -0.030519
894.753900 -0.023674
894.993500 0.068716
895.233100 -0.141074
895.472700 -0.005484
895.712400 0.160998
895.952000 0.005495
896.191700 0.035750
896.431400 0.023059
896.671000 0.131115
896.910700 -0.063435
897.150400 0.020568
897.390100 0.140954
897.629800 0.131564
897.869500 -0.001754
898.109200 0.044801
898.348900 -0.049835
898.588700 -0.008527
898.828400 0.020516
899.068200 0.112910
899.307900 0.219155
899.547700 -0.021302
899.787500 -0.008880
900.027200 0.100543
900.267000 -0.012088
900.506800 0.090540
900.746600 0.018932
900.986400 0.149728
901.226300 -0.039608
901.466100 -0.097121
901.705900 0.264757
901.945800 -0.053840
902.185600 0.144165
902.425500 -0.010974
902.665400 -0.058071
902.905200 0.080886
903.145100 0.036400
903.385000 -0.008449
903.624900 0.012124
903.864800 -0.050197
904.104700 -0.087778
904.344600 0.014786
904.584600 -0.004019
904.824500 -0.140244
905.064400 0.195797
905.304400 0.007502
905.544400 -0.054846
905.784300 0.239340
906.024300 0.007820
906.264300 0.032403
906.504300 0.098078
906.744300 0.047852
906.984300 -0.070084
907.224300 0.118622
907.464300 0.022701
907.704300 0.017279
907.944400 0.102871
908.184400 0.028764
908.424500 0.146874
908.664500 -0.114767
908.904600 0.001503
909.144700 0.071884
909.384700 -0.111666
909.624800 -0.120051
909.864900 0.091789
910.105000 0.063321
910.345200 -0.096063
910.585300 0.196628
910.825400 0.075712
911.065500 -0.010211
911.305700 0.036573
911.545800 0.062589
911.786000 -0.008048
912.026200 0.256348
912.266300 0.262033
912.506500 0.084764
912.746700 0.251035
912.986900 0.122221
913.227100 0.094224
913.467300 0.078900
913.707500 -0.142224
913.947800 0.189311
914.188000 0.101129
914.428300 0.013360
914.668500 0.082478
914.908800 0.166331
915.149000 0.062028
915.389300 0.200778
915.629600 0.066672
915.869900 -0.120913
916.110200 -0.105330
916.350500 -0.020496
916.590800 -0.029804
916.831100 0.086601
917.071400 -0.083508
917.311800 -0.075854
917.552100 0.034034
917.792500 0.032861
918.032800 0.225258
918.273200 0.081840
918.513600 0.214190
918.753900 0.138699
918.994300 0.087977
919.234700 0.080796
919.475100 -0.055583
919.715500 0.055726
919.956000 0.162292
920.196400 -0.144521
920.436800 -0.106209
920.677300 0.029289
920.917700 0.098536
921.158200 0.249942
921.398600 0.084530
921.639100 0.222815
921.879600 -0.094496
922.120100 0.006257
922.360600 0.032681
922.601100 0.092447
922.841600 -0.029934
923.082100 0.147655
923.322600 0.219846
923.563100 -0.015678
923.803700 0.509661
924.044200 0.100439
924.284800 0.036863
924.525400 -0.078510
924.765900 0.012726
925.006500 -0.086983
925.247100 0.124588
925.487700 0.295679
925.728300 0.373764
925.968900 0.372711
926.209500 -0.195286
926.450100 -0.099736
926.690800 0.280570
926.931400 0.131197
927.172000 -0.123205
927.412700 -0.020666
927.653300 0.185127
927.894000 0.293459
928.134700 0.505306
928.375400 -0.068178
928.616100 0.244350
928.856800 0.193668
929.097500 -0.068984
929.338200 -0.211163
929.578900 0.135003
929.819600 0.074948
930.060400 -0.177491
930.301100 -0.134236
930.541900 -0.101188
930.782600 0.278017
931.023400 -0.081840
931.264200 0.020587
931.504900 0.649097
931.745700 0.417113
931.986500 0.091045
932.227300 0.122626
932.468100 0.369235
932.708900 0.634045
932.949800 -0.029572
933.190600 0.308103
933.431400 0.036333
933.672300 -0.117185
933.913100 0.068702
934.154000 0.130694
934.394900 -0.087482
934.635800 -0.036294
934.876600 0.349230
935.117500 -0.066778
935.358400 0.000404
935.599300 -0.057283
935.840300 -0.163097
936.081200 0.231532
936.322100 -0.191907
936.563000 0.039593
936.804000 0.065853
937.044900 0.534240
937.285900 -0.205964
937.526900 0.289037
937.767800 0.185148
938.008800 0.018885
938.249800 0.860194
938.490800 -0.053781
938.731800 0.100606
938.972800 0.258502
939.213800 -0.018806
939.454900 0.377061
939.695900 1.443398
939.936900 0.023217
940.178000 -0.128680
940.419000 -0.176730
940.660100 0.750562
940.901200 -0.039586
941.142200 -0.179257
941.383300 0.533250
941.624400 0.037677
941.865500 0.132783
942.106600 0.673849
942.347700 0.219707
942.588900 1.100565
942.830000 -0.100863
943.071100 0.157973
943.312300 0.296942
943.553400 0.898073
943.794600 -0.152234
944.035700 0.005826
944.276900 -0.166169
944.518100 0.082550
944.759300 0.263241
945.000500 -0.346400
945.241700 0.115334
945.482900 -0.009172
945.724100 0.263656
945.965300 -0.309173
946.206600 -0.182603
946.447800 0.223855
946.689100 -0.076396
946.930300 -0.286094
947.171600 0.041604
947.412800 -0.085765
947.654100 3.168203
947.895400 0.243154
948.136700 0.433444
948.378000 -0.052660
948.619300 0.026704
948.860600 0.331296
949.101900 0.183067
949.343300 -0.068532
949.584600 1.681974
949.825900 0.170835
950.067300 0.169505
950.308600 0.454753
950.550000 0.157105
950.791400 -0.552096
951.032700 0.033261
951.274100 -0.239830
951.515500 0.567500
951.756900 0.068895
951.998300 0.270047
952.239800 0.116607
952.481200 -0.041044
952.722600 -0.215839
952.964000 -0.101621
953.205500 0.345902
953.446900 0.059047
953.688400 0.131778
953.929900 0.153653
954.171300 -1.307242
954.412800 -0.248899
954.654300 0.443869
954.895800 0.000844
955.137300 -0.469524
955.378800 -0.341690
955.620300 0.684339
955.861800 -0.179038
956.103400 0.419088
956.344900 0.237082
956.586500 0.015678
956.828000 0.138046
957.069600 0.255496
957.311100 -0.165668
957.552700 0.672204
957.794300 -0.159594
958.035900 -0.363471
958.277500 -0.537828
958.519100 0.150834
958.760700 0.459577
959.002300 0.276431
959.243900 -0.051738
959.485600 0.298418
959.727200 -0.065625
959.968800 0.425794
960.210500 0.048724
960.452200 0.292959
960.693800 2.919078
960.935500 -3.225826
961.177200 -0.231036
961.418900 0.223460
961.660600 -0.297472
961.902300 0.512829
962.144000 -0.448539
962.385700 0.091853
962.627400 3.115278
962.869200 0.122734
963.110900 -0.050722
963.352700 -0.385720
963.594400 0.418106
963.836200 0.299728
964.077900 0.328725
964.319700 0.334243
964.561500 0.011058
964.803300 1.571047
965.045100 -0.047916
965.286900 0.150217
965.528700 -0.192181
965.770500 0.935507
966.012300 0.109699
966.254200 -0.220302
966.496000 2.663701
966.737900 0.395251
966.979700 0.357303
967.221600 -0.287775
967.463400 -0.019757
967.705300 0.131513
967.947200 0.707450
968.189100 -0.821085
968.431000 0.006652
968.672900 0.270175
968.914800 0.716328
969.156700 2.745075
969.398700 2.896526
969.640600 -0.666709
969.882500 0.783737
970.124500 -0.495219
970.366400 0.054483
970.608400 0.190489
970.850400 -0.595019
971.092300 -0.064786
971.334300 -0.341291
971.576300 -0.198477
971.818300 0.475063
972.060300 0.025133
972.302300 0.575243
972.544300 0.252314
972.786400 -0.056457
973.028400 0.009270
973.270400 0.545013
973.512500 0.159182
973.754500 0.139916
973.996600 0.243478
974.238700 -0.002301
974.480700 -0.274701
974.722800 -0.100872
974.964900 0.218264
975.207000 0.194598
975.449100 0.024589
975.691200 -0.081514
975.933300 -0.140179
976.175500 -3.291369
976.417600 0.656701
976.659700 0.062010
976.901900 -0.033010
977.144000 0.457768
977.386200 -0.569003
977.628300 0.429517
977.870500 0.017689
978.112700 -0.397068
978.354900 -0.089130
978.597100 -0.102203
978.839300 0.015095
979.081500 -0.279699
979.323700 -2.699838
979.565900 -0.491331
979.808200 0.219185
980.050400 0.205567
980.292600 -0.152768
980.534900 -0.167002
980.777100 2.971276
981.019400 0.205042
981.261700 0.336020
981.504000 0.404406
981.746200 -1.309934
981.988500 0.019382
982.230800 0.491634
982.473100 0.644793
982.715500 0.950838
982.957800 0.306580
983.200100 0.101037
983.442400 -0.383217
983.684800 -0.165861
983.927100 0.397661
984.169500 2.985426
984.411800 -0.109446
984.654200 -0.116949
984.896600 0.285518
985.139000 -1.724758
985.381400 0.136098
985.623800 0.206017
985.866200 -0.072493
986.108600 -2.717671
986.351000 0.096028
986.593400 0.737416
986.835800 1.059917
987.078300 -0.143930
987.320700 2.940516
987.563200 -0.427696
987.805600 2.414973
988.048100 0.336729
988.290600 -0.173571
988.533100 0.000000
988.775600 0.168883
989.018000 0.052696
989.260500 0.000713
989.503100 -2.572872
989.745600 -0.627427
989.988100 -3.142076
990.230600 0.416363
990.473200 -0.290319
990.715700 0.122228
990.958200 -0.611704
991.200800 -0.397002
991.443400 -3.037825
991.685900 -0.438485
991.928500 -2.944483
992.171100 2.158362
992.413700 3.125806
992.656300 0.099085
992.898900 -0.319538
993.141500 3.078457
993.384100 0.286803
993.626700 -0.115475
993.869400 -0.214550
994.112000 -0.391376
994.354700 0.398088
994.597300 -0.131173
994.840000 -2.596597
995.082600 -0.627542
995.325300 2.269513
995.568000 -0.306935
995.810700 -0.186762
996.053400 1.662167
996.296100 -0.012109
996.538800 -0.348319
996.781500 0.708743
997.024200 -0.874026
997.267000 -0.034384
997.509700 -0.005057
997.752400 -0.622650
997.995200 0.085951
998.237900 -0.210654
998.480700 2.890421
998.723500 0.000000
998.966200 -0.136903
999.209000 -3.231215
999.451800 0.221419
999.694600 0.081233
999.937400 2.318063
1000.180200 -0.089746
1000.423000 1.018618
1000.665900 2.907949
1000.908700 2.396199
1001.151500 -0.380008
1001.394400 -0.081000
1001.637200 0.189155
1001.880100 -2.389461
1002.123000 -0.104377
1002.365800 2.599883
1002.608700 -0.856909
1002.851600 2.913284
1003.094500 0.335081
1003.337400 2.217484
1003.580300 -2.944483
1003.823200 -0.622851
1004.066100 -0.398235
1004.309100 -0.106744
1004.552000 0.546202
1004.794900 0.417820
1005.037900 0.043720
1005.280800 -0.168792
1005.523800 -0.184918
1005.766700 0.187306
1006.009700 -0.214939
1006.252700 -2.521138
1006.495700 -0.434077
1006.738700 -2.751279
1006.981700 -0.159921
1007.224700 -0.186266
1007.467700 -1.098949
1007.710700 0.180908
1007.953800 0.068034
1008.196800 -0.197597
1008.439800 0.250863
1008.682900 2.691965
1008.925900 -0.128222
1009.169000 -0.005073
1009.412100 -2.313867
1009.655100 -0.935883
1009.898200 0.030133
1010.141300 -0.187167
1010.384400 1.808717
1010.627500 -0.604804
1010.870600 0.010212
1011.113700 0.303887
1011.356800 -0.032279
1011.600000 -0.561224
1011.843100 -0.157228
1012.086300 -2.547775
1012.329400 -0.436784
1012.572600 -2.839478
1012.815700 -0.430940
1013.058900 -3.037825
1013.302100 -0.042214
1013.545200 2.960946
1013.788400 0.255747
1014.031600 0.000000
1014.274800 0.323903
1014.518000 0.322489
1014.761300 0.016168
1015.004500 -2.782473
1015.247700 2.940516
1015.490900 0.000000
1015.734200 0.078432
1015.977400 -0.770121
1016.220700 -1.897627
1016.464000 0.497064
1016.707200 -0.855773
1016.950500 -0.883816
1017.193800 -0.067023
1017.437100 2.562293
1017.680400 0.173851
1017.923700 0.546139
1018.167000 0.342423
1018.410300 -0.153815
1018.653600 0.366039
1018.896900 -0.040979
1019.140300 0.085712
1019.383600 -0.088521
1019.627000 0.139276
1019.870300 -0.620264
1020.113700 0.260311
1020.357100 0.677561
1020.600400 0.305924
1020.843800 0.338979
1021.087200 0.216722
1021.330600 -2.782473
1021.574000 0.303621
1021.817400 -2.462398
1022.060800 -2.492760
1022.304200 0.000000
1022.547700 2.902003
1022.791100 2.432969
1023.034500 0.192777
