# Wavelength	Absorbance
197.780200 0.741801
197.984200 1.183673
198.188200 3.093772
198.392200 0.068303
198.596300 0.871049
198.800300 2.318063
199.004400 -0.472027
199.208500 2.866287
199.412600 0.798978
199.616800 2.768638
199.820900 -0.384037
200.025100 2.877947
200.229200 2.463893
200.433400 0.586996
200.637600 -0.255793
200.841800 2.902003
201.046100 -0.118505
201.250300 0.141835
201.454600 -0.055110
201.658900 -0.017404
201.863100 0.318063
202.067400 2.760422
202.271800 -0.026144
202.476100 -0.209324
202.680500 -0.022050
202.884800 2.980458
203.089200 0.613025
203.293600 2.745075
203.498000 -0.342953
203.702400 2.336460
203.906900 -0.877283
204.111300 0.000000
204.315800 2.728354
204.520300 3.062958
204.724800 2.587711
204.929300 1.354807
205.133800 3.093772
205.338400 2.820201
205.543000 3.171434
205.747500 0.704421
205.952100 -0.386711
206.156700 0.271200
206.361400 -2.567026
206.566000 2.187521
206.770600 0.389328
206.975300 2.294466
207.180000 -1.024134
207.384700 -0.384955
207.589400 -1.869232
207.794100 2.480007
207.998900 0.897938
208.203600 0.265798
208.408400 2.970812
208.613200 -0.223946
208.818000 2.495544
209.022800 -0.006631
209.227600 -0.370130
209.432500 2.907949
209.637300 2.752816
209.842200 2.294466
210.047100 2.798651
210.252000 -0.642403
210.456900 3.086360
210.661800 0.419895
210.866800 3.104828
211.071800 0.325613
211.276700 -0.023509
211.481700 0.059703
211.686700 1.591065
211.891800 -0.406484
212.096800 3.336260
212.301800 0.126993
212.506900 3.209783
212.712000 0.171882
212.917100 3.226342
213.122200 0.480681
213.327300 3.220892
213.532500 0.000000
213.737600 0.221998
213.942800 1.447158
214.148000 -0.131984
214.353200 0.000000
214.558400 2.956168
214.763600 3.265290
214.968900 0.474922
215.174100 3.104487
215.379400 0.000000
215.584700 -0.319179
215.790000 0.058760
215.995300 0.365357
216.200700 0.027306
216.406000 2.902003
216.611400 2.587711
216.816800 -0.250076
217.022200 -0.388699
217.227600 0.211878
217.433000 -0.271653
217.638400 0.351793
217.843900 -0.121464
218.049400 -3.166134
218.254800 0.853477
218.460300 0.441574
218.665900 0.195005
218.871400 3.234517
219.076900 0.103848
219.282500 2.960946
219.488100 1.069551
219.693600 1.742511
219.899200 3.267641
220.104900 -0.104490
220.310500 -0.961553
220.516100 0.000000
220.721800 0.108728
220.927500 0.002588
221.133200 -0.406775
221.338900 2.902003
221.544600 0.461349
221.750300 0.262910
221.956100 -0.161146
222.161800 2.338456
222.367600 1.408134
222.573400 0.128905
222.779200 -3.083861
222.985000 -2.920645
223.190900 1.039727
223.396700 0.643453
223.602600 -0.633774
223.808500 1.231247
224.014400 0.432094
224.220300 2.935507
224.426200 2.719331
224.632200 2.727541
224.838100 2.890421
225.044100 -0.233278
225.250100 2.550228
225.456100 -0.452638
225.662100 -0.527411
225.868100 2.127105
226.074200 -0.254033
226.280200 -2.778874
226.486300 2.846955
226.692400 -2.793790
226.898500 3.101403
227.104600 0.157746
227.310700 -0.149329
227.516900 2.833784
227.723000 0.220673
227.929200 3.252853
228.135400 0.589095
228.341600 -0.543920
228.547800 0.541200
228.754100 3.003891
228.960300 -0.411543
229.166600 0.000000
229.372900 -0.012696
229.579100 -0.483087
229.785500 2.791691
229.991800 0.845098
230.198100 -0.386412
230.404500 1.963788
230.610800 -0.204012
230.817200 0.000000
231.023600 1.849028
231.230000 0.116021
231.436400 0.851258
231.642900 0.465649
231.849300 2.791691
232.055800 -0.055858
232.262300 3.280123
232.468800 -0.834749
232.675300 -0.411372
232.881800 2.599883
233.088400 2.745075
233.294900 -0.541087
233.501500 0.093792
233.708100 0.000000
233.914700 -0.555269
234.121300 0.000000
234.327900 0.907469
234.534600 2.682145
234.741300 1.033146
234.947900 2.736397
235.154600 1.536968
235.361300 0.212987
235.568000 0.536294
235.774800 -0.539458
235.981500 1.057143
236.188300 -2.991669
236.395100 -0.134293
236.601800 0.000000
236.808700 -0.030723
237.015500 2.961421
237.222300 2.853698
237.429200 0.779568
237.636000 -0.001179
237.842900 1.851258
238.049800 -0.311383
238.256700 2.653213
238.463600 3.063333
238.670600 2.970812
238.877500 0.431184
239.084500 -2.808211
239.291500 0.106427
239.498500 0.521237
239.705500 -0.682883
239.912500 -0.948692
240.119500 -0.287528
240.326600 -0.617879
240.533700 -3.098644
240.740700 -0.414654
240.947800 0.354855
241.154900 3.059185
241.362100 0.145384
241.569200 2.632457
241.776400 -0.028219
241.983500 0.148420
242.190700 1.070105
242.397900 0.000000
242.605100 -0.472057
242.812400 -0.069345
243.019600 0.260022
243.226900 -0.221341
243.434100 -0.078385
243.641400 0.392004
243.848700 -0.358600
244.056000 0.000000
244.263400 2.653213
244.470700 -0.136275
244.678100 3.082426
244.885400 0.692616
245.092800 0.046661
245.300200 -0.504197
245.507600 0.551133
245.715100 3.034628
245.922500 1.048401
246.130000 1.230449
246.337500 0.506861
246.544900 -0.782202
246.752400 0.476369
246.960000 0.343076
247.167500 3.215373
247.375000 -2.874482
247.582600 0.640109
247.790200 0.120822
247.997800 0.015840
248.205400 3.262925
248.413000 2.872739
248.620600 0.383149
248.828300 0.116703
249.035900 3.030600
249.243600 0.041078
249.451300 0.068878
249.659000 3.192567
249.866700 0.293721
250.074500 1.027685
250.282200 0.888460
250.490000 0.535881
250.697800 0.189899
250.905600 -0.833227
251.113400 2.929930
251.321200 -0.383519
251.529000 -1.322016
251.736900 3.177536
251.944700 0.080823
252.152600 0.368944
252.360500 0.288513
252.568400 -0.676296
252.776300 -0.365488
252.984300 -0.264131
253.192200 0.786769
253.400200 0.141213
253.608200 -0.178991
253.816200 3.282396
254.024200 0.736018
254.232200 -0.594902
254.440200 0.000000
254.648300 0.283656
254.856400 2.701568
255.064400 0.045192
255.272500 3.097604
255.480600 3.104828
255.688800 0.000000
255.896900 -0.356482
256.105100 0.448558
256.313200 2.752816
256.521400 2.827369
256.729600 0.034046
256.937800 3.171434
257.146000 -0.116698
257.354300 0.000000
257.562500 0.294564
257.770800 0.000000
257.979100 -0.039930
258.187400 0.319237
258.395700 0.173229
258.604000 0.160147
258.812400 -0.389700
259.020700 0.016249
259.229100 0.219290
259.437500 0.554287
259.645900 0.099738
259.854300 -0.019655
260.062700 0.204836
260.271100 2.621176
260.479600 -0.074707
260.688100 0.217901
260.896500 3.252853
261.105000 2.089905
261.313500 2.621176
261.522100 3.142702
261.730600 -0.054907
261.939200 -0.404283
262.147700 0.069250
262.356300 2.745075
262.564900 0.667327
262.773500 2.907411
262.982200 0.137684
263.190800 0.000000
263.399500 3.206826
263.608100 0.029142
263.816800 -0.195309
264.025500 2.396199
264.234200 -0.356185
264.442900 -0.755133
264.651700 0.462121
264.860400 2.662758
265.069200 0.706760
265.278000 0.475791
265.486800 0.554287
265.695600 -0.313179
265.904400 -0.384004
266.113300 2.599883
266.322100 0.472269
266.531000 2.294466
266.739900 2.294466
266.948800 0.611259
267.157700 0.010314
267.366600 3.055378
267.575500 2.799341
267.784500 0.064507
267.993500 0.359273
268.202400 0.162601
268.411400 -0.174850
268.620500 0.065694
268.829500 0.711516
269.038500 2.123852
269.247600 -0.140241
269.456600 -0.922858
269.665700 0.157461
269.874800 1.402261
270.083900 1.118552
270.293100 -2.454845
270.502200 3.034628
270.711400 2.127105
270.920500 -0.293320
271.129700 0.563823
271.338900 3.115611
271.548100 2.691965
271.757300 3.030195
271.966600 2.890421
272.175800 0.710583
272.385100 3.132580
272.594400 0.294118
272.803700 -0.263955
273.013000 -0.142668
273.222300 0.453178
273.431600 3.165244
273.641000 3.209783
273.850400 -0.308308
274.059700 2.945961
274.269100 -0.020423
274.478500 -0.202659
274.688000 1.314323
274.897400 2.866287
275.106900 -1.764578
275.316300 0.540831
275.525800 0.204939
275.735300 0.000000
275.944800 -0.269604
276.154300 -0.116117
276.363900 0.040172
276.573400 2.840106
276.783000 2.965672
276.992600 0.233114
277.202200 0.316493
277.411800 -0.354297
277.621400 -0.051333
277.831000 0.461540
278.040700 0.303055
278.250300 2.820201
278.460000 -0.177433
278.669700 2.980458
278.879400 -0.202514
279.089100 2.691965
279.298900 -0.097420
279.508600 0.539994
279.718400 0.188909
279.928100 0.000000
280.137900 3.215373
280.347700 2.632457
280.557600 1.919554
280.767400 3.039017
280.977200 1.367006
281.187100 0.000000
281.397000 2.048512
281.606900 0.000000
281.816800 0.330120
282.026700 -0.183644
282.236600 0.367977
282.446600 1.419129
282.656500 -2.252853
282.866500 2.791691
283.076500 -0.203123
283.286500 3.115278
283.496500 -0.177304
283.706500 0.340385
283.916600 -0.008194
284.126600 0.845098
284.336700 -0.016130
284.546800 -0.261708
284.756900 -0.018432
284.967000 2.896526
285.177100 0.906249
285.387300 -2.252853
285.597400 1.039310
285.807600 -0.825688
286.017800 0.160388
286.228000 -2.198657
286.438200 0.208591
286.648400 -0.041755
286.858700 0.057386
287.068900 -0.366682
287.279200 2.846955
287.489500 2.414973
287.699800 0.591939
287.910100 -0.341666
288.120400 0.185143
288.330800 -0.616216
288.541100 0.370683
288.751500 0.712334
288.961900 -0.149262
289.172300 -2.952792
289.382700 1.097093
289.593100 -0.130864
289.803500 -2.676694
290.014000 0.266967
290.224500 3.059185
290.434900 -2.942008
290.645400 -0.343201
290.855900 -0.706433
291.066500 3.146128
291.277000 -0.331983
291.487500 2.768638
291.698100 0.704180
291.908700 -0.760187
292.119300 0.117177
292.329900 1.537819
292.540500 -0.290347
292.751100 0.106749
292.961800 -2.064458
293.172400 3.171434
293.383100 0.000000
293.593800 2.994757
293.804500 -0.446464
294.015200 0.070902
294.226000 0.000000
294.436700 0.005550
294.647500 2.866287
294.858200 0.417761
295.069000 3.055378
295.279800 2.736397
295.490600 0.000000
295.701500 3.059185
295.912300 0.829932
296.123200 0.171452
296.334000 -0.349226
296.544900 3.316809
296.755800 0.371473
296.966700 -0.100509
297.177700 0.881503
297.388600 -0.267213
297.599500 2.269513
297.810500 3.090258
298.021500 0.370345
298.232500 1.286408
298.443500 1.690196
298.654500 0.133389
298.865600 0.611259
299.076600 -0.524844
299.287700 -2.793790
299.498800 3.201124
299.709900 0.027521
299.921000 0.719970
300.132100 3.038620
300.343200 0.448278
300.554400 2.769377
300.765500 -0.214859
300.976700 -3.317646
301.187900 0.151695
301.399100 -0.072910
301.610300 0.128500
301.821500 0.633956
302.032800 -0.125451
302.244100 3.017451
302.455300 0.223123
302.666600 -0.020527
302.877900 -0.099994
303.089200 -0.887825
303.300600 3.209783
303.511900 2.970812
303.723300 -0.321480
303.934600 -0.206520
304.146000 -1.024134
304.357400 0.455246
304.568800 -0.205739
304.780300 0.305798
304.991700 0.483587
305.203100 0.207384
305.414600 0.743537
305.626100 -0.220082
305.837600 0.182423
306.049100 -0.383894
306.260600 -0.068763
306.472200 2.245513
306.683700 -0.207549
306.895300 -0.715069
307.106900 0.322168
307.318400 3.034628
307.530100 0.052304
307.741700 2.806180
307.953300 3.332236
308.165000 0.000000
308.376600 0.323282
308.588300 0.198145
308.800000 -0.206322
309.011700 3.215109
309.223400 0.134137
309.435100 -0.226445
309.646900 -0.511497
309.858600 0.341505
310.070400 0.156379
310.282200 1.447158
310.494000 0.146622
310.705800 3.168203
310.917600 -0.106235
311.129500 0.775648
311.341300 -0.003062
311.553200 0.089097
311.765100 0.503765
311.977000 0.320534
312.188900 0.180535
312.400800 3.030600
312.612700 0.030566
312.824700 3.292034
313.036600 3.158965
313.248600 1.354311
313.460600 1.958173
313.672600 0.661239
313.884600 1.362084
314.096700 -0.208328
314.308700 1.174932
314.520800 0.341400
314.732800 0.350083
314.944900 -0.078405
315.157000 1.493628
315.369200 1.213554
315.581300 0.515759
315.793400 2.653213
316.005600 0.530860
316.217700 0.374412
316.429900 0.441314
316.642100 3.168203
316.854300 3.093772
317.066600 3.463445
317.278800 0.803298
317.491100 3.192289
317.703300 0.557385
317.915600 3.296446
318.127900 3.445760
318.340200 3.097604
318.552500 0.323815
318.764900 0.317081
318.977200 1.373134
319.189600 0.251320
319.401900 0.161092
319.614300 1.267295
319.826700 3.192289
320.039200 0.238971
320.251600 0.259264
320.464000 0.622769
320.676500 0.608234
320.889000 2.465383
321.101400 3.348889
321.313900 3.310268
321.526500 0.737925
321.739000 0.645795
321.951500 0.759412
322.164100 0.646858
322.376600 0.333342
322.589200 3.362859
322.801800 0.326900
323.014400 1.108119
323.227000 0.158424
323.439700 3.437433
323.652300 0.461416
323.865000 0.889027
324.077700 0.764318
324.290400 3.310268
324.503100 0.480403
324.715800 2.357762
324.928500 0.415822
325.141200 0.421331
325.354000 0.547936
325.566800 1.253154
325.779600 0.479296
325.992400 3.314710
326.205200 0.811794
326.418000 1.275705
326.630800 3.581495
326.843700 3.659250
327.056600 0.715571
327.269400 0.594805
327.482300 0.738199
327.695200 0.871416
327.908200 0.545552
328.121100 1.476206
328.334000 0.387992
328.547000 0.979633
328.760000 0.640569
328.973000 3.578983
329.186000 0.334373
329.399000 3.445915
329.612000 0.671522
329.825100 3.485153
330.038100 0.356132
330.251200 0.545522
330.464300 0.392066
330.677400 1.120936
330.890500 1.062958
331.103600 3.526469
331.316700 0.614620
331.529900 3.658298
331.743100 0.500018
331.956200 3.661339
332.169400 0.486521
332.382600 0.520009
332.595900 0.993188
332.809100 1.627042
333.022300 3.595606
333.235600 3.633468
333.448900 0.489101
333.662200 0.449513
333.875500 1.365301
334.088800 1.032529
334.302100 3.740521
334.515400 3.647089
334.728800 3.641871
334.942200 3.626956
335.155500 0.832829
335.368900 1.504011
335.582300 0.832668
335.795800 3.676968
336.009200 0.590313
336.222700 1.601779
336.436100 3.725258
336.649600 3.795949
336.863100 0.666177
337.076600 1.722577
337.290100 0.650073
337.503600 0.699432
337.717200 0.849734
337.930700 0.712841
338.144300 0.653932
338.357900 0.960808
338.571500 1.294065
338.785100 3.703205
338.998700 0.687037
339.212400 1.119830
339.426000 0.314204
339.639700 1.414413
339.853300 0.916175
340.067000 0.650073
340.280700 1.421202
340.494500 3.790074
340.708200 0.718194
340.921900 1.597987
341.135700 1.058613
341.349500 1.430236
341.563300 0.568309
341.777100 3.818094
341.990900 2.789773
342.204700 1.158986
342.418500 0.850531
342.632400 3.830460
342.846300 0.530386
343.060100 0.914149
343.274000 1.403433
343.487900 3.871748
343.701900 0.742491
343.915800 0.906531
344.129700 0.753696
344.343700 0.593599
344.557700 0.818272
344.771700 3.809694
344.985700 3.914502
345.199700 3.834484
345.413700 0.810270
345.627700 3.783332
345.841800 0.575614
346.055900 3.854124
346.269900 1.524252
346.484000 3.898615
346.698100 0.939195
346.912300 0.858671
347.126400 1.928288
347.340600 3.899164
347.554700 3.883264
347.768900 3.886321
347.983100 1.400478
348.197300 2.020014
348.411500 0.537659
348.625700 3.866760
348.840000 2.029384
349.054200 3.926085
349.268500 3.952889
349.482800 0.896342
349.697100 1.722977
349.911400 0.905166
350.125700 0.957779
350.340000 3.937869
350.554400 0.689999
350.768700 1.427085
350.983100 1.303979
351.197500 0.968601
351.411900 3.984437
351.626300 1.387891
351.840700 3.963032
352.055200 3.931966
352.269600 3.959471
352.484100 3.950851
352.698600 0.799741
352.913100 3.896857
353.127600 0.924791
353.342100 1.169392
353.556600 1.120231
353.771200 4.007534
353.985800 3.943643
354.200300 1.317056
354.414900 1.144769
354.629500 3.907143
354.844100 1.012002
355.058800 1.122459
355.273400 3.971369
355.488100 1.114656
355.702700 0.885597
355.917400 3.938920
356.132100 1.320046
356.346800 3.982000
356.561500 1.489817
356.776300 1.011485
356.991000 1.256479
357.205800 1.223836
357.420600 1.056744
357.635300 0.921347
357.850100 1.819960
358.065000 1.378093
358.279800 1.389484
358.494600 0.819487
358.709500 0.994179
358.924300 1.434220
359.139200 1.141039
359.354100 2.118970
359.569000 0.997659
359.783900 1.256482
359.998900 1.004671
360.213800 2.150715
360.428800 0.919107
360.643800 3.982497
360.858700 0.877085
361.073700 0.873914
361.288800 1.032267
361.503800 4.026452
361.718800 0.934498
361.933900 0.889408
362.148900 4.016866
362.364000 1.609107
362.579100 4.062845
362.794200 4.002986
363.009300 1.185759
363.224500 1.110561
363.439600 4.024280
363.654800 4.034989
363.869900 1.891444
364.085100 0.779397
364.300300 1.496134
364.515500 4.049102
364.730800 0.838312
364.946000 1.063939
365.161200 0.964464
365.376500 1.700754
365.591800 2.330529
365.807100 1.534681
366.022400 0.922589
366.237700 4.078022
366.453000 1.042286
366.668400 0.923241
366.883700 1.449792
367.099100 1.114780
367.314500 1.123125
367.529900 1.042974
367.745300 1.016034
367.960700 1.295585
368.176100 0.868538
368.391600 4.101850
368.607000 1.106955
368.822500 4.111901
369.038000 1.313849
369.253500 1.847552
369.469000 1.249239
369.684500 1.792582
369.900100 4.150787
370.115600 1.193444
370.331200 1.177202
370.546800 4.104009
370.762400 1.616718
370.978000 4.107990
371.193600 1.803321
371.409200 1.639076
371.624900 1.207916
371.840500 1.836736
372.056200 4.129561
372.271900 4.101128
372.487600 1.001782
372.703300 1.307747
372.919000 1.283954
373.134800 1.460977
373.350500 1.180842
373.566300 4.154637
373.782000 4.160709
373.997800 1.512442
374.213600 1.107239
374.429400 1.157737
374.645300 1.242064
374.861100 1.625738
375.077000 1.557251
375.292800 4.182329
375.508700 1.337759
375.724600 1.374262
375.940500 1.356273
376.156400 4.224455
376.372400 4.242367
376.588300 4.218667
376.804300 0.999444
377.020300 4.247581
377.236200 1.239625
377.452200 1.327808
377.668200 2.537344
377.884300 1.603302
378.100300 1.056813
378.316400 1.208018
378.532400 1.172384
378.748500 1.587865
378.964600 2.588177
379.180700 4.308394
379.396800 2.448957
379.612900 1.547079
379.829100 1.272564
380.045200 1.294091
380.261400 1.217348
380.477600 1.705243
380.693800 1.166362
380.910000 1.593726
381.126200 0.871367
381.342400 4.319959
381.558700 4.275910
381.774900 2.783457
381.991200 1.762739
382.207500 2.445436
382.423800 1.148722
382.640100 1.547763
382.856400 4.341336
383.072800 4.319502
383.289100 1.655561
383.505500 1.460976
383.721900 1.323092
383.938200 4.339471
384.154600 1.268823
384.371100 4.337779
384.587500 4.348791
384.803900 4.366890
385.020400 1.029173
385.236800 1.272471
385.453300 1.098306
385.669800 4.340702
385.886300 1.905900
386.102800 4.360120
386.319400 1.353644
386.535900 1.273329
386.752500 1.186365
386.969000 1.753831
387.185600 1.189813
387.402200 1.308895
387.618800 1.743517
387.835500 1.486800
388.052100 1.283863
388.268700 1.531172
388.485400 1.430094
388.702100 1.667495
388.918800 1.156622
389.135500 2.915894
389.352200 1.427717
389.568900 4.384425
389.785600 1.375537
390.002400 1.182979
390.219200 1.335514
390.435900 1.617037
390.652700 1.127594
390.869500 1.813222
391.086300 0.906881
391.303200 1.324966
391.520000 2.225653
391.736900 2.286738
391.953700 1.220509
392.170600 1.595608
392.387500 1.101964
392.604400 1.824516
392.821300 1.132443
393.038300 1.263792
393.255200 1.113683
393.472200 1.042222
393.689100 1.130436
393.906100 1.123590
394.123100 1.229002
394.340100 1.011138
394.557200 1.048772
394.774200 1.142626
394.991200 1.129958
395.208300 1.223589
395.425400 1.042338
395.642500 1.028344
395.859600 0.923161
396.076700 1.063378
396.293800 0.886806
396.510900 0.829367
396.728100 0.903652
396.945300 1.004470
397.162400 0.817905
397.379600 0.911129
397.596800 0.979281
397.814000 0.996085
398.031300 0.917396
398.248500 0.900997
398.465800 0.861593
398.683000 0.853567
398.900300 0.823052
399.117600 0.810828
399.334900 0.744077
399.552200 0.842153
399.769600 0.967145
399.986900 0.982805
400.204300 0.831596
400.421600 0.822664
400.639000 0.708299
400.856400 0.783933
401.073800 0.683381
401.291200 0.908069
401.508700 0.822820
401.726100 0.664855
401.943600 0.760547
402.161000 0.834263
402.378500 0.717751
402.596000 0.769289
402.813500 0.713463
403.031000 0.647170
403.248600 0.694194
403.466100 0.775875
403.683700 0.603745
403.901300 0.739826
404.118900 0.670600
404.336500 0.681941
404.554100 0.721206
404.771700 0.672747
404.989300 0.637802
405.207000 0.589559
405.424600 0.648256
405.642300 0.634035
405.860000 0.672586
406.077700 0.702826
406.295400 0.643035
406.513100 0.598556
406.730900 0.604207
406.948600 0.708979
407.166400 0.634159
407.384200 0.565322
407.602000 0.563663
407.819800 0.513679
408.037600 0.608927
408.255400 0.544740
408.473300 0.631364
408.691100 0.571867
408.909000 0.576196
409.126900 0.550112
409.344800 0.591693
409.562700 0.487903
409.780600 0.533781
409.998500 0.554556
410.216500 0.546932
410.434400 0.545023
410.652400 0.561624
410.870400 0.542790
411.088400 0.495497
411.306400 0.558237
411.524400 0.531986
411.742400 0.466010
411.960500 0.578675
412.178500 0.450600
412.396600 0.519954
412.614700 0.484045
412.832800 0.506872
413.050900 0.475513
413.269000 0.483936
413.487100 0.518030
413.705300 0.490457
413.923400 0.517770
414.141600 0.496574
414.359800 0.507287
414.578000 0.479821
414.796200 0.575823
415.014400 0.471012
415.232600 0.453498
415.450900 0.449967
415.669200 0.427066
415.887400 0.478462
416.105700 0.485971
416.324000 0.494307
416.542300 0.434043
416.760600 0.512735
416.979000 0.433455
417.197300 0.414440
417.415700 0.479510
417.634100 0.435901
417.852400 0.469207
418.070800 0.434459
418.289300 0.429103
418.507700 0.419108
418.726100 0.468573
418.944600 0.438244
419.163000 0.449018
419.381500 0.430866
419.600000 0.416403
419.818500 0.449010
420.037000 0.397707
420.255500 0.476252
420.474100 0.424325
420.692600 0.429540
420.911200 0.476291
421.129800 0.400680
421.348300 0.427537
421.566900 0.445401
421.785600 0.381278
422.004200 0.458856
422.222800 0.378156
422.441500 0.428107
422.660100 0.378607
422.878800 0.383343
423.097500 0.421750
423.316200 0.408998
423.534900 0.390471
423.753600 0.412160
423.972400 0.391619
424.191100 0.420504
424.409900 0.390383
424.628700 0.431836
424.847500 0.366385
425.066300 0.434162
425.285100 0.380115
425.503900 0.390519
425.722800 0.330050
425.941600 0.355768
426.160500 0.369432
426.379300 0.329732
426.598200 0.402093
426.817100 0.395625
427.036100 0.416764
427.255000 0.407539
427.473900 0.349776
427.692900 0.386671
427.911800 0.374304
428.130800 0.416255
428.349800 0.385053
428.568800 0.410417
428.787800 0.368895
429.006800 0.451726
429.225900 0.343162
429.444900 0.390769
429.664000 0.358894
429.883100 0.383294
430.102200 0.386630
430.321300 0.383652
430.540400 0.363478
430.759500 0.349869
430.978700 0.373856
431.197800 0.405415
431.417000 0.385635
431.636200 0.343864
431.855300 0.400824
432.074500 0.366034
432.293800 0.347934
432.513000 0.391937
432.732200 0.330385
432.951500 0.477186
433.170700 0.423271
433.390000 0.392161
433.609300 0.405290
433.828600 0.374494
434.047900 0.395555
434.267300 0.369589
434.486600 0.354766
434.705900 0.360948
434.925300 0.398264
435.144700 0.436097
435.364100 0.416674
435.583500 0.360944
435.802900 0.368304
436.022300 0.349278
436.241800 0.373589
436.461200 0.377130
436.680700 0.375639
436.900100 0.387946
437.119600 0.447076
437.339100 0.383031
437.558600 0.377983
437.778200 0.396980
437.997700 0.388023
438.217300 0.387150
438.436800 0.354572
438.656400 0.392578
438.876000 0.331092
439.095600 0.336897
439.315200 0.373488
439.534800 0.359143
439.754500 0.377294
439.974100 0.391415
440.193800 0.389979
440.413500 0.439416
440.633100 0.393455
440.852800 0.407478
441.072500 0.410276
441.292300 0.431503
441.512000 0.391229
441.731800 0.373263
441.951500 0.396624
442.171300 0.388217
442.391100 0.412069
442.610900 0.405717
442.830700 0.404339
443.050500 0.431603
443.270300 0.367508
443.490200 0.375400
443.710100 0.377497
443.929900 0.381799
444.149800 0.399622
444.369700 0.431262
444.589600 0.380261
444.809500 0.422881
445.029500 0.415889
445.249400 0.393538
445.469400 0.411184
445.689400 0.455158
445.909300 0.381022
446.129300 0.423310
446.349300 0.427195
446.569400 0.440973
446.789400 0.407036
447.009400 0.437386
447.229500 0.424973
447.449600 0.408514
447.669600 0.402748
447.889700 0.407874
448.109800 0.414544
448.330000 0.403521
448.550100 0.460331
448.770200 0.397217
448.990400 0.429611
449.210600 0.443204
449.430700 0.430713
449.650900 0.416178
449.871100 0.421331
450.091400 0.463090
450.311600 0.488459
450.531800 0.431365
450.752100 0.439858
450.972400 0.450609
451.192600 0.461276
451.412900 0.432370
451.633200 0.421060
451.853500 0.442645
452.073900 0.443765
452.294200 0.479791
452.514600 0.510884
452.734900 0.435296
452.955300 0.454911
453.175700 0.466145
453.396100 0.471229
453.616500 0.459362
453.836900 0.495429
454.057400 0.507840
454.277800 0.445341
454.498300 0.488880
454.718800 0.522979
454.939300 0.542194
455.159700 0.489605
455.380300 0.488887
455.600800 0.498205
455.821300 0.469262
456.041900 0.491069
456.262400 0.477495
456.483000 0.543326
456.703600 0.524644
456.924200 0.535225
457.144800 0.512768
457.365400 0.512236
457.586000 0.529668
457.806700 0.536225
458.027400 0.545250
458.248000 0.540021
458.468700 0.528050
458.689400 0.524595
458.910100 0.511207
459.130800 0.565701
459.351600 0.505666
459.572300 0.490298
459.793100 0.552128
460.013800 0.581848
460.234600 0.610724
460.455400 0.547707
460.676200 0.577725
460.897000 0.594233
461.117800 0.598186
461.338700 0.601288
461.559500 0.650997
461.780400 0.540129
462.001300 0.605294
462.222200 0.570526
462.443100 0.661606
462.664000 0.629974
462.884900 0.579926
463.105900 0.651979
463.326800 0.606369
463.547800 0.621310
463.768700 0.640272
463.989700 0.605334
464.210700 0.599173
464.431700 0.645397
464.652800 0.607293
464.873800 0.621839
465.094800 0.608997
465.315900 0.677403
465.537000 0.685878
465.758100 0.642600
465.979200 0.693702
466.200300 0.656190
466.421400 0.711262
466.642500 0.694562
466.863700 0.663270
467.084800 0.686443
467.306000 0.649089
467.527200 0.673741
467.748400 0.674066
467.969600 0.706994
468.190800 0.819172
468.412000 0.710127
468.633300 0.761857
468.854500 0.776633
469.075800 0.602549
469.297000 0.713056
469.518300 0.753685
469.739600 0.728350
469.961000 0.627348
470.182300 0.716342
470.403600 0.673260
470.625000 0.709378
470.846300 0.683806
471.067700 0.740965
471.289100 0.763946
471.510500 0.821085
471.731900 0.735843
471.953300 0.882416
472.174800 0.728379
472.396200 0.751785
472.617700 0.770082
472.839100 0.760742
473.060600 0.790447
473.282100 0.822813
473.503600 0.825960
473.725100 0.786844
473.946700 0.734210
474.168200 0.898702
474.389800 0.905374
474.611300 0.824611
474.832900 0.799800
475.054500 0.758768
475.276100 0.763367
475.497700 0.776158
475.719300 0.859885
475.941000 0.798694
476.162600 0.818509
476.384300 0.965736
476.606000 0.828546
476.827700 0.909122
477.049400 0.905268
477.271100 0.888458
477.492800 0.802732
477.714500 0.902925
477.936300 0.838208
478.158000 0.902966
478.379800 0.803201
478.601600 0.914150
478.823400 0.819284
479.045200 0.995730
479.267000 0.853972
479.488800 0.919933
479.710700 0.910738
479.932500 0.811881
480.154400 1.032968
480.376300 0.895683
480.598200 1.041921
480.820100 0.960390
481.042000 1.080459
481.263900 0.976427
481.485900 0.987160
481.707800 1.126093
481.929800 0.879506
482.151700 0.935147
482.373700 0.938669
482.595700 0.963461
482.817700 0.930308
483.039800 1.058776
483.261800 1.113338
483.483800 1.060419
483.705900 0.979061
483.928000 1.186153
484.150100 0.974498
484.372100 1.035615
484.594300 1.023916
484.816400 1.024776
485.038500 1.071326
485.260600 1.173252
485.482800 1.107145
485.705000 1.116580
485.927100 1.094719
486.149300 1.100024
486.371500 1.041510
486.593700 1.058996
486.816000 1.083565
487.038200 1.093072
487.260500 1.165299
487.482700 1.100304
487.705000 1.015790
487.927300 1.228884
488.149600 1.095942
488.371900 1.125305
488.594200 1.054336
488.816500 1.272916
489.038900 1.086013
489.261200 1.127387
489.483600 1.168641
489.706000 1.251468
489.928400 1.049084
490.150800 1.142434
490.373200 1.041541
490.595600 1.194247
490.818000 1.179050
491.040500 1.203598
491.263000 1.155022
491.485400 1.148491
491.707900 1.116787
491.930400 1.196936
492.152900 1.063281
492.375500 1.228088
492.598000 1.020482
492.820500 1.164313
493.043100 1.244883
493.265700 1.297683
493.488200 1.177752
493.710800 1.309372
493.933400 1.474582
494.156100 1.107955
494.378700 1.086832
494.601300 1.179765
494.824000 1.109011
495.046600 1.422404
495.269300 1.064268
495.492000 1.294131
495.714700 1.104833
495.937400 1.286459
496.160100 1.270165
496.382900 1.317495
496.605600 1.229628
496.828400 1.277426
497.051100 1.132905
497.273900 1.209204
497.496700 1.227574
497.719500 1.404550
497.942300 1.210643
498.165200 1.127748
498.388000 1.114741
498.610900 1.176030
498.833700 1.310435
499.056600 1.075255
499.279500 1.249886
499.502400 1.405907
499.725300 1.339748
499.948200 1.469702
500.171200 0.960814
500.394100 1.257619
500.617100 1.279467
500.840000 1.292793
501.063000 1.230178
501.286000 1.471149
501.509000 1.257942
501.732000 1.953194
501.955100 1.187456
502.178100 1.367928
502.401200 1.290423
502.624200 1.222040
502.847300 1.172118
503.070400 1.255352
503.293500 1.232586
503.516600 1.250458
503.739700 1.175765
503.962800 1.249762
504.186000 1.090740
504.409200 1.273968
504.632300 1.263594
504.855500 1.345759
505.078700 1.315402
505.301900 1.411654
505.525100 1.376155
505.748300 1.773335
505.971600 1.272553
506.194800 1.459326
506.418100 1.299547
506.641400 1.193086
506.864700 1.174811
507.088000 1.551731
507.311300 1.304304
507.534600 1.358096
507.757900 1.347567
507.981300 1.301678
508.204600 1.295299
508.428000 1.409736
508.651400 1.157168
508.874800 1.254419
509.098200 1.368050
509.321600 1.389129
509.545000 1.426025
509.768500 1.156706
509.991900 1.227923
510.215400 1.224046
510.438800 1.498287
510.662300 2.257797
510.885800 1.129623
511.109300 1.416237
511.332900 1.407979
511.556400 1.185598
511.779900 1.267844
512.003500 1.191987
512.227000 1.124613
512.450600 1.780076
512.674200 1.711831
512.897800 1.676922
513.121400 1.109043
513.345100 1.486987
513.568700 1.142267
513.792300 1.530778
514.016000 1.077722
514.239700 1.219802
514.463400 1.445069
514.687100 1.564255
514.910800 1.279312
515.134500 1.429146
515.358200 1.326854
515.581900 1.159330
515.805700 1.162522
516.029500 1.242893
516.253200 1.247619
516.477000 1.117868
516.700800 1.155582
516.924600 1.467843
517.148500 1.248856
517.372300 1.294798
517.596100 1.238829
517.820000 1.106574
518.043900 1.046751
518.267700 1.163984
518.491600 1.325743
518.715500 1.029241
518.939500 1.259406
519.163400 1.416995
519.387300 1.089483
519.611300 1.146870
519.835200 1.187389
520.059200 1.114420
520.283200 1.345413
520.507200 1.013314
520.731200 2.378697
520.955200 1.134084
521.179200 1.430459
521.403300 1.053260
521.627300 1.134394
521.851400 1.270283
522.075500 1.242787
522.299600 1.059704
522.523700 1.164900
522.747800 0.933170
522.971900 0.990559
523.196000 1.054377
523.420200 1.069697
523.644300 0.936975
523.868500 1.080204
524.092700 1.091416
524.316900 1.207099
524.541100 1.061255
524.765300 1.116658
524.989500 1.087896
525.213800 1.058065
525.438000 1.029892
525.662300 1.353689
525.886500 1.017974
526.110800 1.118296
526.335100 1.281975
526.559400 1.443717
526.783700 0.892799
527.008100 1.100948
527.232400 0.958782
527.456800 1.157133
527.681100 1.036896
527.905500 1.094314
528.129900 1.061094
528.354300 1.029767
528.578700 0.991675
528.803100 1.068250
529.027600 1.006169
529.252000 0.940534
529.476500 1.055933
529.700900 1.063721
529.925400 0.887711
530.149900 1.054882
530.374400 1.192775
530.598900 0.899159
530.823400 0.853428
531.048000 0.906635
531.272500 0.893092
531.497100 1.077352
531.721700 0.889331
531.946200 0.998614
532.170800 0.943142
532.395400 0.963857
532.620000 0.971379
532.844700 1.006149
533.069300 0.879950
533.294000 1.051110
533.518600 0.908306
533.743300 1.206458
533.968000 0.895193
534.192700 0.817597
534.417400 0.927335
534.642100 0.930427
534.866800 0.929220
535.091600 0.842505
535.316300 0.935799
535.541100 0.858132
535.765900 0.869997
535.990700 0.907819
536.215500 0.811228
536.440300 1.010241
536.665100 0.746744
536.889900 0.867569
537.114800 0.687405
537.339600 0.784760
537.564500 0.740901
537.789400 0.727552
538.014300 0.762586
538.239200 0.842005
538.464100 0.713159
538.689000 0.782110
538.913900 0.782280
539.138900 0.771320
539.363800 0.724288
539.588800 0.778188
539.813800 0.740390
540.038800 0.710341
540.263800 0.690144
540.488800 0.764672
540.713800 0.675093
540.938900 0.766208
541.163900 0.744136
541.389000 0.726384
541.614000 0.678327
541.839100 0.726368
542.064200 0.689447
542.289300 0.816122
542.514400 0.717792
542.739600 0.661761
542.964700 0.654920
543.189900 0.647028
543.415000 0.636255
543.640200 0.720077
543.865400 0.745232
544.090600 0.629354
544.315800 0.679684
544.541000 0.669049
544.766200 0.578961
544.991500 0.604531
545.216700 0.599136
545.442000 0.601242
545.667300 0.664414
545.892600 0.682493
546.117900 0.663115
546.343200 0.608836
546.568500 0.616111
546.793800 0.585302
547.019200 0.548814
547.244500 0.618348
547.469900 0.557347
547.695300 0.546323
547.920600 0.596720
548.146000 0.544742
548.371500 0.534468
548.596900 0.575128
548.822300 0.527189
549.047800 0.598957
549.273200 0.544094
549.498700 0.535781
549.724200 0.513993
549.949600 0.531812
550.175100 0.523209
550.400700 0.479288
550.626200 0.520424
550.851700 0.510532
551.077300 0.527293
551.302800 0.476984
551.528400 0.493920
551.754000 0.528493
551.979600 0.443798
552.205200 0.520302
552.430800 0.494492
552.656400 0.469537
552.882000 0.443334
553.107700 0.542754
553.333300 0.415459
553.559000 0.443251
553.784700 0.437306
554.010400 0.453750
554.236100 0.452241
554.461800 0.436813
554.687500 0.418292
554.913200 0.432138
555.139000 0.420568
555.364800 0.441542
555.590500 0.409791
555.816300 0.447050
556.042100 0.428515
556.267900 0.401953
556.493700 0.420587
556.719500 0.424192
556.945400 0.445444
557.171200 0.430270
557.397100 0.426877
557.623000 0.401946
557.848800 0.360225
558.074700 0.389318
558.300600 0.345089
558.526600 0.362323
558.752500 0.365079
558.978400 0.368367
559.204400 0.346263
559.430300 0.337967
559.656300 0.330941
559.882300 0.354309
560.108300 0.336042
560.334300 0.347573
560.560300 0.349364
560.786300 0.342106
561.012400 0.341267
561.238400 0.321021
561.464500 0.341163
561.690500 0.318739
561.916600 0.319957
562.142700 0.328129
562.368800 0.322492
562.594900 0.330783
562.821100 0.341902
563.047200 0.340996
563.273300 0.334405
563.499500 0.307234
563.725700 0.324846
563.951900 0.281151
564.178100 0.292687
564.404300 0.305551
564.630500 0.318332
564.856700 0.272721
565.082900 0.272684
565.309200 0.274507
565.535500 0.305457
565.761700 0.282031
565.988000 0.269635
566.214300 0.278667
566.440600 0.264732
566.666900 0.283933
566.893200 0.280541
567.119600 0.279470
567.345900 0.260743
567.572300 0.280267
567.798700 0.251284
568.025000 0.253413
568.251400 0.254043
568.477800 0.250301
568.704300 0.253898
568.930700 0.257649
569.157100 0.243080
569.383600 0.247996
569.610000 0.243937
569.836500 0.238956
570.063000 0.248293
570.289500 0.239163
570.516000 0.262106
570.742500 0.249675
570.969000 0.244489
571.195600 0.238742
571.422100 0.239022
571.648700 0.240068
571.875200 0.242483
572.101800 0.231872
572.328400 0.230096
572.555000 0.221966
572.781600 0.232745
573.008200 0.259255
573.234900 0.229772
573.461500 0.223053
573.688200 0.221720
573.914900 0.212720
574.141500 0.219463
574.368200 0.212673
574.594900 0.214964
574.821600 0.206483
575.048400 0.212782
575.275100 0.200385
575.501800 0.222755
575.728600 0.218214
575.955400 0.208432
576.182100 0.212354
576.408900 0.207762
576.635700 0.214475
576.862600 0.205838
577.089400 0.195015
577.316200 0.202867
577.543100 0.200050
577.769900 0.197118
577.996800 0.187912
578.223700 0.191500
578.450500 0.193644
578.677400 0.194808
578.904400 0.186284
579.131300 0.186135
579.358200 0.189162
579.585100 0.191387
579.812100 0.183620
580.039100 0.182723
580.266000 0.170045
580.493000 0.174891
580.720000 0.167270
580.947000 0.179727
581.174100 0.163601
581.401100 0.166727
581.628100 0.169441
581.855200 0.160368
582.082200 0.164923
582.309300 0.168351
582.536400 0.172787
582.763500 0.165648
582.990600 0.161033
583.217700 0.157085
583.444900 0.162765
583.672000 0.159154
583.899100 0.173281
584.126300 0.174682
584.353500 0.154641
584.580700 0.174677
584.807900 0.159539
585.035100 0.168960
585.262300 0.160858
585.489500 0.153507
585.716700 0.155778
585.944000 0.161875
586.171300 0.155189
586.398500 0.148416
586.625800 0.160962
586.853100 0.153164
587.080400 0.146504
587.307700 0.141452
587.535000 0.152119
587.762400 0.136051
587.989700 0.144303
588.217100 0.149299
588.444500 0.149051
588.671800 0.150937
588.899200 0.149369
589.126600 0.139408
589.354000 0.153640
589.581500 0.136847
589.808900 0.145890
590.036300 0.156133
590.263800 0.147551
590.491300 0.145022
590.718700 0.146586
590.946200 0.127459
591.173700 0.137657
591.401200 0.144610
591.628800 0.157696
591.856300 0.142700
592.083800 0.159689
592.311400 0.131802
592.538900 0.132241
592.766500 0.131302
592.994100 0.142557
593.221700 0.146617
593.449300 0.128249
593.676900 0.131397
593.904600 0.141426
594.132200 0.121411
594.359800 0.131830
594.587500 0.124116
594.815200 0.125923
595.042900 0.133056
595.270500 0.132960
595.498300 0.137423
595.726000 0.133966
595.953700 0.141100
596.181400 0.124389
596.409200 0.134381
596.636900 0.139882
596.864700 0.145136
597.092500 0.146855
597.320300 0.130751
597.548100 0.134815
597.775900 0.135763
598.003700 0.130501
598.231500 0.134711
598.459400 0.145122
598.687200 0.147232
598.915100 0.130768
599.143000 0.126870
599.370900 0.137613
599.598800 0.122658
599.826700 0.127431
600.054600 0.127956
600.282500 0.124029
600.510500 0.117967
600.738400 0.112312
600.966400 0.125282
601.194400 0.114227
601.422300 0.120734
601.650300 0.128886
601.878300 0.124784
602.106400 0.132592
602.334400 0.127852
602.562400 0.125752
602.790500 0.133794
603.018500 0.119603
603.246600 0.118629
603.474700 0.115797
603.702800 0.117609
603.930900 0.126767
604.159000 0.123635
604.387100 0.129658
604.615200 0.115668
604.843400 0.121995
605.071500 0.127214
605.299700 0.114710
605.527900 0.113079
605.756100 0.112355
605.984300 0.109193
606.212500 0.110024
606.440700 0.099204
606.668900 0.108607
606.897200 0.107829
607.125400 0.114495
607.353700 0.100226
607.581900 0.116456
607.810200 0.103065
608.038500 0.109544
608.266800 0.101415
608.495100 0.109566
608.723500 0.098871
608.951800 0.115688
609.180100 0.107196
609.408500 0.118721
609.636900 0.114900
609.865300 0.124575
610.093600 0.111823
610.322000 0.121172
610.550500 0.114683
610.778900 0.099662
611.007300 0.104166
611.235700 0.124605
611.464200 0.110623
611.692700 0.125436
611.921100 0.104748
612.149600 0.107357
612.378100 0.109842
612.606600 0.106668
612.835100 0.114912
613.063700 0.119771
613.292200 0.109520
613.520800 0.112118
613.749300 0.109159
613.977900 0.111162
614.206500 0.107572
614.435100 0.116305
614.663700 0.119925
614.892300 0.105360
615.120900 0.114176
615.349500 0.120368
615.578200 0.108094
615.806800 0.121569
616.035500 0.115627
616.264200 0.104792
616.492900 0.102099
616.721600 0.104370
616.950300 0.113188
617.179000 0.089573
617.407700 0.113212
617.636500 0.099118
617.865200 0.111439
618.094000 0.115772
618.322700 0.110170
618.551500 0.103261
618.780300 0.108637
619.009100 0.107085
619.237900 0.109679
619.466700 0.119940
619.695600 0.115197
619.924400 0.108408
620.153300 0.095962
620.382100 0.104425
620.611000 0.102163
620.839900 0.086420
621.068800 0.085569
621.297700 0.101827
621.526600 0.103843
621.755600 0.110201
621.984500 0.089008
622.213500 0.099031
622.442400 0.093849
622.671400 0.112542
622.900400 0.099170
623.129400 0.119896
623.358400 0.087139
623.587400 0.105609
623.816400 0.081788
624.045400 0.097209
624.274500 0.105797
624.503500 0.092496
624.732600 0.092519
624.961700 0.110890
625.190800 0.093604
625.419900 0.090275
625.649000 0.099387
625.878100 0.094855
626.107200 0.093166
626.336400 0.092887
626.565500 0.102154
626.794700 0.104889
627.023800 0.092718
627.253000 0.105797
627.482200 0.110527
627.711400 0.085680
627.940600 0.133625
628.169800 0.086946
628.399100 0.097315
628.628300 0.098268
628.857600 0.091437
629.086800 0.079439
629.316100 0.094066
629.545400 0.083360
629.774700 0.102872
630.004000 0.104995
630.233300 0.103002
630.462600 0.098193
630.692000 0.099953
630.921300 0.093897
631.150700 0.094478
631.380100 0.092542
631.609400 0.105599
631.838800 0.109563
632.068200 0.096900
632.297600 0.095056
632.527100 0.129080
632.756500 0.091306
632.985900 0.096957
633.215400 0.094964
633.444800 0.066004
633.674300 0.116650
633.903800 0.099424
634.133300 0.072027
634.362800 0.086765
634.592300 0.109219
634.821800 0.104026
635.051400 0.122436
635.280900 0.090126
635.510500 0.056927
635.740000 0.083169
635.969600 0.104617
636.199200 0.084446
636.428800 0.092923
636.658400 0.109376
636.888000 0.081111
637.117700 0.095931
637.347300 0.085536
637.577000 0.087323
637.806600 0.111789
638.036300 0.097114
638.266000 0.064620
638.495700 0.087274
638.725400 0.096743
638.955100 0.099604
639.184800 0.080409
639.414500 0.081872
639.644300 0.113006
639.874000 0.098702
640.103800 0.084084
640.333600 0.074426
640.563300 0.089010
640.793100 0.096322
641.022900 0.102233
641.252800 0.095283
641.482600 0.095068
641.712400 0.107758
641.942300 0.099543
642.172100 0.102221
642.402000 0.110115
642.631900 0.058724
642.861700 0.075234
643.091600 0.111358
643.321600 0.103609
643.551500 0.082766
643.781400 0.097220
644.011300 0.054376
644.241300 0.082161
644.471200 0.102527
644.701200 0.035661
644.931200 0.113544
645.161200 0.102774
645.391200 0.074199
645.621200 0.082904
645.851200 0.053705
646.081200 0.067164
646.311300 0.130113
646.541300 0.140039
646.771400 0.077898
647.001500 0.099390
647.231600 0.110676
647.461600 0.117197
647.691800 0.093959
647.921900 0.082512
648.152000 0.098579
648.382100 0.066192
648.612300 0.118059
648.842400 0.101811
649.072600 0.136862
649.302800 0.110331
649.532900 0.084297
649.763100 0.081648
649.993300 0.091991
650.223600 0.093353
650.453800 0.065153
650.684000 0.057966
650.914300 0.057782
651.144500 0.116186
651.374800 0.103706
651.605100 0.090387
651.835400 0.111748
652.065700 0.093937
652.296000 0.060193
652.526300 0.075379
652.756600 0.083100
652.987000 0.094361
653.217300 0.086776
653.447700 0.102330
653.678000 0.094918
653.908400 0.049842
654.138800 0.120978
654.369200 0.122383
654.599600 0.093813
654.830000 0.119039
655.060500 0.160782
655.290900 0.154531
655.521300 0.148094
655.751800 0.111377
655.982300 0.002910
656.212800 0.000974
656.443300 0.001458
656.673800 0.001232
656.904300 0.053732
657.134800 0.109413
657.365300 0.107973
657.595900 0.109808
657.826400 0.111805
658.057000 0.115171
658.287500 0.116248
658.518100 0.118737
658.748700 0.108943
658.979300 0.122711
659.209900 0.143141
659.440600 0.163956
659.671200 0.170363
659.901800 0.182056
660.132500 0.165187
660.363200 0.150573
660.593800 0.134480
660.824500 0.087674
661.055200 0.120397
661.285900 0.161960
661.516600 0.073376
661.747400 0.116263
661.978100 0.094355
662.208800 0.173302
662.439600 0.119916
662.670400 0.114412
662.901100 0.103301
663.131900 0.093669
663.362700 0.067964
663.593500 0.129131
663.824300 0.094408
664.055200 0.120158
664.286000 0.076797
664.516800 0.146504
664.747700 0.133317
664.978600 0.057933
665.209400 0.107078
665.440300 0.105246
665.671200 0.100484
665.902100 0.138162
666.133000 0.082195
666.364000 0.101607
666.594900 0.056826
666.825900 0.078491
667.056800 0.072922
667.287800 0.084617
667.518800 0.084083
667.749700 0.092516
667.980700 0.108128
668.211700 0.063829
668.442800 0.089738
668.673800 0.142433
668.904800 0.105561
669.135900 0.107898
669.366900 0.123405
669.598000 0.051102
669.829100 0.077126
670.060200 0.089642
670.291300 0.140747
670.522400 0.143346
670.753500 0.127956
670.984600 0.088997
671.215700 0.110084
671.446900 0.106333
671.678100 0.096272
671.909200 0.071862
672.140400 0.112206
672.371600 0.091226
672.602800 0.066800
672.834000 0.086122
673.065200 0.072522
673.296400 0.079282
673.527700 0.092702
673.758900 0.072858
673.990200 0.082303
674.221400 0.143266
674.452700 0.136294
674.684000 0.095276
674.915300 0.107843
675.146600 0.104200
675.377900 0.073500
675.609300 0.103501
675.840600 0.095298
676.071900 0.095062
676.303300 0.081628
676.534700 0.060585
676.766100 0.084473
676.997400 0.127593
677.228800 0.100781
677.460200 0.094216
677.691700 0.110007
677.923100 0.104444
678.154500 0.105474
678.386000 0.099289
678.617400 0.094171
678.848900 0.070587
679.080400 0.108583
679.311900 0.067711
679.543400 0.075521
679.774900 0.111488
680.006400 0.071777
680.237900 0.086349
680.469400 0.108399
680.701000 0.090811
680.932500 0.096006
681.164100 0.092283
681.395700 0.071366
681.627300 0.091935
681.858900 0.090838
682.090500 0.076150
682.322100 0.093834
682.553700 0.074914
682.785400 0.078396
683.017000 0.087617
683.248700 0.082866
683.480300 0.068092
683.712000 0.037138
683.943700 0.121107
684.175400 0.096170
684.407100 0.087319
684.638800 0.066218
684.870500 0.094314
685.102300 0.090274
685.334000 0.100153
685.565800 0.111311
685.797500 0.091902
686.029300 0.071446
686.261100 0.107559
686.492900 0.094443
686.724700 0.104880
686.956500 0.076862
687.188300 0.079344
687.420200 0.078826
687.652000 0.076481
687.883800 0.126983
688.115700 0.088190
688.347600 0.084196
688.579500 0.078258
688.811400 0.069196
689.043300 0.134248
689.275200 0.117427
689.507100 0.088769
689.739000 0.110824
689.971000 0.097879
690.202900 0.103757
690.434900 0.101625
690.666900 0.108472
690.898800 0.104727
691.130800 0.108946
691.362800 0.111511
691.594800 0.085063
691.826900 0.082602
692.058900 0.120703
692.290900 0.151938
692.523000 0.071953
692.755000 0.087271
692.987100 0.099754
693.219200 0.100357
693.451300 0.077548
693.683400 0.093923
693.915500 0.079769
694.147600 0.063223
694.379700 0.089505
694.611900 0.079462
694.844000 0.117821
695.076200 0.057394
695.308300 0.117719
695.540500 0.073347
695.772700 0.073759
696.004900 0.094429
696.237100 0.107299
696.469300 0.058222
696.701600 0.112754
696.933800 0.111106
697.166000 0.080189
697.398300 0.125407
697.630600 0.086373
697.862800 0.109280
698.095100 0.119901
698.327400 0.092514
698.559700 0.107469
698.792000 0.051689
699.024300 0.092031
699.256700 0.084278
699.489000 0.095208
699.721400 0.089062
699.953700 0.069061
700.186100 0.108034
700.418500 0.084425
700.650900 0.110015
700.883300 0.092231
701.115700 0.112180
701.348100 0.094958
701.580600 0.090745
701.813000 0.102291
702.045400 0.075379
702.277900 0.107099
702.510400 0.124843
702.742900 0.081319
702.975300 0.101905
703.207800 0.088877
703.440300 0.095496
703.672900 0.124920
703.905400 0.049434
704.137900 0.107909
704.370500 0.071337
704.603000 0.058193
704.835600 0.081104
705.068200 0.067246
705.300800 0.087989
705.533400 0.088987
705.766000 0.074694
705.998600 0.113852
706.231200 0.097145
706.463800 0.116552
706.696500 0.110316
706.929100 0.072044
707.161800 0.067482
707.394500 0.090026
707.627200 0.064453
707.859900 0.119806
708.092600 0.138303
708.325300 0.075890
708.558000 0.102943
708.790700 0.099217
709.023500 0.103199
709.256200 0.093642
709.489000 0.059562
709.721700 0.061529
709.954500 0.090801
710.187300 0.104415
710.420100 0.089724
710.652900 0.063344
710.885700 0.082618
711.118600 0.093277
711.351400 0.091693
711.584200 0.086409
711.817100 0.109172
712.050000 0.065518
712.282800 0.073025
712.515700 0.103465
712.748600 0.084483
712.981500 0.051858
713.214400 0.091392
713.447400 0.072012
713.680300 0.069380
713.913200 0.101078
714.146200 0.062187
714.379100 0.092998
714.612100 0.083413
714.845100 0.131047
715.078100 0.083821
715.311100 0.083106
715.544100 0.063263
715.777100 0.089178
716.010200 0.086678
716.243200 0.071177
716.476200 0.095180
716.709300 0.094645
716.942400 0.078008
717.175400 0.064562
717.408500 0.071656
717.641600 0.061089
717.874700 0.119738
718.107800 0.082330
718.341000 0.115975
718.574100 0.088049
718.807200 0.145943
719.040400 0.089288
719.273600 0.102461
719.506700 0.073789
719.739900 0.084310
719.973100 0.060384
720.206300 0.061140
720.439500 0.098352
720.672700 0.048989
720.906000 0.098837
721.139200 0.116961
721.372500 0.102303
721.605700 0.117234
721.839000 0.126708
722.072300 0.103346
722.305500 0.084176
722.538800 0.098642
722.772100 0.094833
723.005500 0.068117
723.238800 0.107808
723.472100 0.114598
723.705500 0.091741
723.938800 0.112706
724.172200 0.071159
724.405600 0.092530
724.638900 0.131391
724.872300 0.086544
725.105700 0.078939
725.339100 0.117959
725.572600 0.071648
725.806000 0.085420
726.039400 0.091180
726.272900 0.091746
726.506300 0.098115
726.739800 0.074711
726.973300 0.099695
727.206800 0.069634
727.440300 0.119733
727.673800 0.100090
727.907300 0.091289
728.140800 0.079407
728.374300 0.085914
728.607900 0.119552
728.841400 0.087731
729.075000 0.083538
729.308600 0.087401
729.542100 0.089509
729.775700 0.091718
730.009300 0.062286
730.242900 0.097206
730.476600 0.137195
730.710200 0.095250
730.943800 0.105056
731.177500 0.116298
731.411100 0.081459
731.644800 0.112416
731.878500 0.072262
732.112200 0.089640
732.345800 0.119965
732.579500 0.117781
732.813300 0.101977
733.047000 0.088996
733.280700 0.116452
733.514500 0.106515
733.748200 0.089467
733.982000 0.113452
734.215700 0.103175
734.449500 0.088566
734.683300 0.103583
734.917100 0.083033
735.150900 0.057090
735.384700 0.081094
735.618500 0.112424
735.852400 0.099608
736.086200 0.109942
736.320100 0.087924
736.553900 0.094049
736.787800 0.101761
737.021700 0.078460
737.255600 0.073292
737.489500 0.091342
737.723400 0.072178
737.957300 0.071013
738.191200 0.087941
738.425200 0.099080
738.659100 0.073545
738.893100 0.072245
739.127100 0.074462
739.361000 0.089541
739.595000 0.115411
739.829000 0.076769
740.063000 0.059140
740.297000 0.100537
740.531000 0.067093
740.765100 0.095278
740.999100 0.105644
741.233200 0.087058
741.467200 0.107942
741.701300 0.101420
741.935400 0.111973
742.169500 0.062401
742.403600 0.065664
742.637700 0.092818
742.871800 0.068074
743.105900 0.115394
743.340000 0.088699
743.574200 0.106906
743.808300 0.096592
744.042500 0.071478
744.276700 0.088172
744.510800 0.078896
744.745000 0.101783
744.979200 0.086361
745.213400 0.093798
745.447700 0.060884
745.681900 0.058528
745.916100 0.105993
746.150400 0.090831
746.384600 0.117691
746.618900 0.050132
746.853200 0.128543
747.087400 0.058431
747.321700 0.125645
747.556000 0.054365
747.790300 0.099922
748.024700 0.021695
748.259000 0.077105
748.493300 0.097910
748.727700 0.098806
748.962000 0.082684
749.196400 0.075267
749.430800 0.096225
749.665200 0.096241
749.899500 0.050441
750.133900 0.062558
750.368400 0.103316
750.602800 0.063115
750.837200 0.070292
751.071700 0.094630
751.306100 0.106784
751.540600 0.089020
751.775000 0.096577
752.009500 0.101668
752.244000 0.105799
752.478500 0.096543
752.713000 0.095462
752.947500 0.082752
753.182000 0.105114
753.416600 0.098478
753.651100 0.109256
753.885600 0.103549
754.120200 0.107084
754.354800 0.100886
754.589400 0.119749
754.823900 0.063837
755.058500 0.100596
755.293100 0.081170
755.527800 0.071048
755.762400 0.107859
755.997000 0.078774
756.231700 0.099862
756.466300 0.101615
756.701000 0.079480
756.935600 0.071209
757.170300 0.083852
757.405000 0.103552
757.639700 0.111506
757.874400 0.102889
758.109100 0.102657
758.343800 0.094703
758.578600 0.109469
758.813300 0.098099
759.048100 0.085957
759.282800 0.099697
759.517600 0.116594
759.752400 0.083317
759.987200 0.107445
760.222000 0.091061
760.456800 0.091700
760.691600 0.096347
760.926400 0.086227
761.161300 0.093601
761.396100 0.085292
761.631000 0.095979
761.865800 0.120196
762.100700 0.092506
762.335600 0.106920
762.570500 0.070168
762.805400 0.087281
763.040300 0.083346
763.275200 0.090311
763.510100 0.087388
763.745000 0.105499
763.980000 0.090440
764.214900 0.073912
764.449900 0.094624
764.684900 0.103300
764.919800 0.079147
765.154800 0.093876
765.389800 0.085490
765.624800 0.102530
765.859900 0.075307
766.094900 0.088371
766.329900 0.058737
766.565000 0.090147
766.800000 0.057274
767.035100 0.100042
767.270100 0.089776
767.505200 0.134429
767.740300 0.085141
767.975400 0.105854
768.210500 0.101158
768.445600 0.095925
768.680800 0.080052
768.915900 0.099980
769.151000 0.080084
769.386200 0.101629
769.621400 0.109049
769.856500 0.104568
770.091700 0.117384
770.326900 0.070185
770.562100 0.080602
770.797300 0.086606
771.032500 0.062772
771.267700 0.090639
771.503000 0.090207
771.738200 0.121687
771.973500 0.073267
772.208700 0.093264
772.444000 0.113198
772.679300 0.070341
772.914600 0.099519
773.149900 0.082974
773.385200 0.106565
773.620500 0.097853
773.855800 0.101351
774.091100 0.067685
774.326500 0.091545
774.561800 0.093906
774.797200 0.139919
775.032600 0.169069
775.267900 0.072765
775.503300 0.123265
775.738700 0.101371
775.974100 0.066640
776.209500 0.062889
776.445000 0.105734
776.680400 0.122750
776.915800 0.103532
777.151300 0.065628
777.386800 0.058125
777.622200 0.104281
777.857700 0.116096
778.093200 0.097968
778.328700 0.103751
778.564200 0.084847
778.799700 0.112007
779.035200 0.101198
779.270700 0.059989
779.506300 0.092112
779.741800 0.073541
779.977400 0.090295
780.213000 0.092860
780.448500 0.105328
780.684100 0.116383
780.919700 0.116499
781.155300 0.078369
781.390900 0.096892
781.626500 0.077246
781.862200 0.115450
782.097800 0.098412
782.333500 0.116667
782.569100 0.111007
782.804800 0.076490
783.040500 0.076908
783.276100 0.082544
783.511800 0.096495
783.747500 0.087025
783.983200 0.059991
784.219000 0.088749
784.454700 0.068689
784.690400 0.109882
784.926200 0.087402
785.161900 0.080714
785.397700 0.081595
785.633500 0.081685
785.869200 0.061235
786.105000 0.116987
786.340800 0.104038
786.576600 0.109254
786.812400 0.090433
787.048300 0.102458
787.284100 0.114491
787.519900 0.080035
787.755800 0.100047
787.991700 0.124915
788.227500 0.084402
788.463400 0.052989
788.699300 0.068490
788.935200 0.089838
789.171100 0.131891
789.407000 0.071481
789.642900 0.103357
789.878900 0.100257
790.114800 0.091187
790.350700 0.100414
790.586700 0.061428
790.822700 0.088642
791.058600 0.073337
791.294600 0.089583
791.530600 0.071582
791.766600 0.093225
792.002600 0.158006
792.238700 0.058117
792.474700 0.074477
792.710700 0.089586
792.946800 0.091144
793.182800 0.092407
793.418900 0.059297
793.655000 0.105104
793.891000 0.096018
794.127100 0.077587
794.363200 0.064754
794.599300 0.069040
794.835500 0.074045
795.071600 0.130614
795.307700 0.116223
795.543900 0.088299
795.780000 0.079914
796.016200 0.111128
796.252300 0.137308
796.488500 0.126172
796.724700 0.129390
796.960900 0.104348
797.197100 0.106679
797.433300 0.050282
797.669500 0.107540
797.905800 0.079681
798.142000 0.099627
798.378300 0.077747
798.614500 0.102895
798.850800 0.103641
799.087100 0.097282
799.323300 0.135970
799.559600 0.048193
799.795900 0.071558
800.032200 0.149823
800.268600 0.082777
800.504900 0.140621
800.741200 0.100436
800.977600 0.088144
801.213900 0.124029
801.450300 0.111248
801.686700 0.094881
801.923000 0.083789
802.159400 0.064722
802.395800 0.089580
802.632200 0.124410
802.868600 0.016574
803.105100 0.084137
803.341500 0.028866
803.577900 0.100857
803.814400 0.076597
804.050800 0.059054
804.287300 0.075631
804.523800 0.063151
804.760300 0.091718
804.996800 0.027264
805.233300 0.075138
805.469800 0.094795
805.706300 0.138570
805.942800 0.033064
806.179400 0.061514
806.415900 0.088155
806.652500 0.080207
806.889000 0.114113
807.125600 0.139190
807.362200 0.106311
807.598800 0.052619
807.835400 0.120733
808.072000 0.085798
808.308600 0.111969
808.545200 0.074178
808.781800 0.094444
809.018500 0.123803
809.255100 0.097617
809.491800 0.044434
809.728400 0.071765
809.965100 0.083664
810.201800 0.098708
810.438500 0.039898
810.675200 0.043635
810.911900 0.098807
811.148600 0.078717
811.385300 0.120876
811.622100 0.125016
811.858800 0.124838
812.095600 0.068035
812.332300 0.072534
812.569100 0.064846
812.805900 0.068260
813.042700 0.055846
813.279500 0.185843
813.516300 0.126165
813.753100 0.106366
813.989900 0.107101
814.226700 0.114282
814.463600 0.092206
814.700400 0.121551
814.937300 0.059781
815.174200 0.062421
815.411000 0.101617
815.647900 0.105513
815.884800 0.044401
816.121700 0.093932
816.358600 0.060023
816.595500 0.150115
816.832400 0.075559
817.069400 0.054833
817.306300 0.040629
817.543300 0.120377
817.780200 0.062258
818.017200 0.110072
818.254200 0.153809
818.491200 0.067099
818.728200 0.118340
818.965200 0.171158
819.202200 0.090002
819.439200 0.053890
819.676200 0.044114
819.913300 0.068034
820.150300 0.064186
820.387400 0.159912
820.624400 0.139715
820.861500 0.071810
821.098600 0.082491
821.335700 0.197731
821.572700 0.149804
821.809900 0.095927
822.047000 0.126759
822.284100 0.126008
822.521200 0.067188
822.758400 0.091568
822.995500 0.097886
823.232700 0.120157
823.469800 0.033141
823.707000 0.084009
823.944200 0.159646
824.181400 0.104199
824.418600 0.074197
824.655800 0.046765
824.893000 0.094110
825.130200 0.122342
825.367500 0.085621
825.604700 0.134559
825.841900 0.109445
826.079200 0.117788
826.316500 0.067738
826.553700 0.067828
826.791000 0.122200
827.028300 0.105575
827.265600 0.079913
827.502900 0.103280
827.740200 0.139104
827.977600 0.071139
828.214900 0.052177
828.452200 0.186581
828.689600 0.106672
828.927000 0.157916
829.164300 0.001371
829.401700 0.105324
829.639100 0.073423
829.876500 0.005563
830.113900 0.156173
830.351300 0.071326
830.588700 0.201918
830.826100 0.150354
831.063600 0.120828
831.301000 0.220986
831.538500 0.070225
831.775900 0.187230
832.013400 0.058155
832.250900 0.125826
832.488400 0.266869
832.725900 0.129829
832.963400 0.119437
833.200900 0.127334
833.438400 0.066978
833.675900 0.174929
833.913500 0.167518
834.151000 0.093848
834.388600 0.069157
834.626100 0.069982
834.863700 0.108629
835.101300 0.021486
835.338900 0.049322
835.576500 0.091343
835.814100 0.105092
836.051700 0.017538
836.289300 0.162417
836.526900 0.070236
836.764600 0.084805
837.002200 0.148658
837.239900 0.170069
837.477500 0.013153
837.715200 0.017019
837.952900 0.061407
838.190600 0.069614
838.428300 0.021033
838.666000 0.127069
838.903700 -0.011378
839.141400 0.266988
839.379100 0.058564
839.616900 0.022440
839.854600 0.106146
840.092400 0.065923
840.330200 0.095175
840.567900 0.166020
840.805700 0.084146
841.043500 0.106286
841.281300 0.176770
841.519100 0.060725
841.756900 0.092797
841.994700 0.051560
842.232600 0.180199
842.470400 0.253710
842.708200 -0.009778
842.946100 0.166689
843.184000 -0.078079
843.421800 0.013146
843.659700 0.179557
843.897600 -0.031427
844.135500 0.260189
844.373400 0.014230
844.611300 0.021584
844.849200 0.085478
845.087200 -0.017903
845.325100 0.281456
845.563100 0.026904
845.801000 0.058890
846.039000 0.134954
846.277000 0.051391
846.514900 0.011619
846.752900 0.085534
846.990900 0.082533
847.228900 0.101930
847.466900 0.212957
847.705000 0.053933
847.943000 -0.011556
848.181000 0.010033
848.419100 0.050141
848.657100 0.213614
848.895200 0.049108
849.133300 0.200089
849.371300 0.147538
849.609400 0.035109
849.847500 0.069557
850.085600 0.111445
850.323700 0.227890
850.561900 -0.100804
850.800000 0.107028
851.038100 0.308341
851.276300 0.045405
851.514400 -0.070646
851.752600 0.194107
851.990800 0.080932
852.228900 0.047200
852.467100 0.094425
852.705300 0.141584
852.943500 0.100481
853.181700 0.137013
853.420000 0.064810
853.658200 0.058761
853.896400 0.106744
854.134700 0.104314
854.372900 0.125603
854.611200 0.113414
854.849500 0.189933
855.087700 0.084702
855.326000 0.177050
855.564300 0.079905
855.802600 0.142839
856.040900 0.137223
856.279200 0.118501
856.517600 0.105249
856.755900 0.067110
856.994200 0.131756
857.232600 0.183838
857.471000 0.090591
857.709300 0.027028
857.947700 0.043790
858.186100 0.185496
858.424500 0.172843
858.662900 0.075366
858.901300 0.176587
859.139700 0.146952
859.378100 0.020993
859.616600 0.096607
859.855000 0.077127
860.093500 0.092025
860.331900 0.079527
860.570400 0.173422
860.808900 0.149734
861.047300 0.166701
861.285800 0.081294
861.524300 0.212262
861.762800 0.132422
862.001300 0.279877
862.239900 0.175575
862.478400 -0.026167
862.716900 0.142919
862.955500 0.103476
863.194000 0.015092
863.432600 0.139878
863.671200 0.028274
863.909800 0.098935
864.148300 0.050953
864.386900 0.024794
864.625500 0.022974
864.864200 0.021029
865.102800 -0.085640
865.341400 0.015453
865.580000 0.002342
865.818700 0.122504
866.057300 0.169318
866.296000 0.044854
866.534700 0.110938
866.773300 0.150373
867.012000 0.031595
867.250700 0.027073
867.489400 -0.012746
867.728100 0.163036
867.966900 0.204603
868.205600 0.062989
868.444300 0.077574
868.683100 0.082361
868.921800 0.141497
869.160600 -0.003193
869.399300 0.029287
869.638100 0.028572
869.876900 0.109144
870.115700 0.144993
870.354500 0.110594
870.593300 0.055458
870.832100 0.034689
871.070900 0.069264
871.309700 0.070585
871.548600 0.266293
871.787400 0.093192
872.026300 -0.044801
872.265100 0.007850
872.504000 0.037910
872.742900 -0.001200
872.981800 0.049108
873.220700 0.115059
873.459600 0.126209
873.698500 0.187154
873.937400 0.136228
874.176300 0.034321
874.415300 0.050641
874.654200 0.044193
874.893200 0.053822
875.132100 0.048748
875.371100 0.050238
875.610100 -0.010588
875.849100 0.036286
876.088000 0.071811
876.327000 0.116255
876.566100 0.093396
876.805100 0.071512
877.044100 0.030928
877.283100 0.024046
877.522200 -0.054711
877.761200 0.063836
878.000300 0.113548
878.239300 0.035229
878.478400 0.201947
878.717500 0.098700
878.956600 0.185983
879.195700 0.098401
879.434800 0.008814
879.673900 0.195304
879.913000 0.025658
880.152100 0.055173
880.391300 0.115222
880.630400 0.144097
880.869600 0.118028
881.108700 0.089039
881.347900 0.072551
881.587100 0.082059
881.826200 0.143959
882.065400 0.134998
882.304600 0.054263
882.543800 0.093243
882.783100 0.266474
883.022300 0.102181
883.261500 0.061540
883.500700 0.107753
883.740000 0.107335
883.979200 0.242281
884.218500 0.010824
884.457800 0.029449
884.697100 0.166602
884.936300 0.176881
885.175600 0.170878
885.414900 0.057199
885.654200 0.146989
885.893600 0.088972
886.132900 0.053438
886.372200 0.083120
886.611600 -0.065489
886.850900 0.132984
887.090300 0.114477
887.329600 0.081134
887.569000 0.174506
887.808400 0.108571
888.047800 -0.097645
888.287200 0.064774
888.526600 0.097718
888.766000 0.145761
889.005400 0.065072
889.244800 0.030001
889.484300 -0.038222
889.723700 0.140219
889.963200 0.190398
890.202600 0.149068
890.442100 0.039647
890.681600 0.066095
890.921100 0.155568
891.160600 -0.021436
891.400100 0.027440
891.639600 0.113394
891.879100 0.114765
892.118600 0.148466
892.358100 0.079051
892.597700 0.138722
892.837200 0.203532
893.076800 0.146897
893.316300 0.193784
893.555900 0.132833
893.795500 0.339509
894.035100 0.127980
894.274700 0.196321
894.514300 0.118416
894.753900 0.108051
894.993500 0.065019
895.233100 -0.022838
895.472700 -0.110206
895.712400 0.158952
895.952000 -0.018228
896.191700 0.179107
896.431400 0.010962
896.671000 0.148613
896.910700 0.127987
897.150400 0.083665
897.390100 0.130944
897.629800 0.117258
897.869500 0.185617
898.109200 0.089279
898.348900 0.059083
898.588700 0.095982
898.828400 0.172976
899.068200 0.272734
899.307900 0.100350
899.547700 0.339829
899.787500 0.060654
900.027200 0.086225
900.267000 0.139304
900.506800 0.199458
900.746600 0.160115
900.986400 0.196281
901.226300 0.237928
901.466100 0.177361
901.705900 0.334624
901.945800 0.060300
902.185600 0.057452
902.425500 0.114807
902.665400 0.030756
902.905200 0.174199
903.145100 0.175341
903.385000 0.135234
903.624900 0.187129
903.864800 0.069869
904.104700 0.182663
904.344600 0.061763
904.584600 -0.080731
904.824500 -0.106849
905.064400 -0.051134
905.304400 0.168171
905.544400 0.138757
905.784300 0.121912
906.024300 0.098554
906.264300 0.076607
906.504300 0.226567
906.744300 0.099482
906.984300 -0.040272
907.224300 0.153645
907.464300 0.046743
907.704300 0.002783
907.944400 0.066009
908.184400 0.269404
908.424500 0.073596
908.664500 -0.003140
908.904600 -0.012404
909.144700 0.135976
909.384700 0.207661
909.624800 -0.011112
909.864900 0.323585
910.105000 0.078615
910.345200 -0.107221
910.585300 -0.059630
910.825400 0.042255
911.065500 0.236423
911.305700 0.176327
911.545800 0.079923
911.786000 0.093727
912.026200 0.089414
912.266300 0.155139
912.506500 0.151667
912.746700 0.127366
912.986900 0.081045
913.227100 -0.112820
913.467300 0.131807
913.707500 0.022151
913.947800 0.162845
914.188000 0.075598
914.428300 0.201097
914.668500 0.099594
914.908800 0.204817
915.149000 0.065933
915.389300 -0.040695
915.629600 0.230916
915.869900 0.087995
916.110200 0.014902
916.350500 0.176281
916.590800 0.054509
916.831100 0.230521
917.071400 0.019259
917.311800 0.114077
917.552100 -0.048437
917.792500 -0.068764
918.032800 0.021253
918.273200 -0.031377
918.513600 0.040301
918.753900 0.128249
918.994300 0.031964
919.234700 0.321143
919.475100 0.062448
919.715500 0.116730
919.956000 0.237073
920.196400 0.071444
920.436800 -0.078566
920.677300 0.119740
920.917700 0.252082
921.158200 0.221385
921.398600 0.205645
921.639100 0.512704
921.879600 -0.285871
922.120100 0.161650
922.360600 0.216201
922.601100 -0.096742
922.841600 0.043419
923.082100 -0.003388
923.322600 0.116938
923.563100 -0.095482
923.803700 0.051244
924.044200 0.294797
924.284800 0.250074
924.525400 0.156352
924.765900 0.280147
925.006500 -0.062682
925.247100 0.096835
925.487700 0.067794
925.728300 0.270962
925.968900 0.105311
926.209500 -0.033788
926.450100 -0.046567
926.690800 0.229748
926.931400 0.174310
927.172000 0.151204
927.412700 0.166478
927.653300 0.082068
927.894000 0.324209
928.134700 0.463848
928.375400 0.364467
928.616100 0.451793
928.856800 0.111687
929.097500 0.184417
929.338200 0.268898
929.578900 0.045534
929.819600 0.328680
930.060400 -0.011266
930.301100 0.054565
930.541900 -0.013422
930.782600 -0.152498
931.023400 0.376303
931.264200 0.333524
931.504900 0.912627
931.745700 0.042429
931.986500 0.012517
932.227300 0.092297
932.468100 0.091847
932.708900 0.107582
932.949800 0.278963
933.190600 0.180233
933.431400 -0.032161
933.672300 -0.227588
933.913100 0.129599
934.154000 0.387684
934.394900 0.025807
934.635800 0.031244
934.876600 0.208263
935.117500 0.116881
935.358400 3.508395
935.599300 -0.049932
935.840300 0.137232
936.081200 0.375314
936.322100 -0.103948
936.563000 0.174644
936.804000 0.083208
937.044900 0.600533
937.285900 0.693284
937.526900 0.553618
937.767800 0.415157
938.008800 0.295691
938.249800 0.174553
938.490800 0.476369
938.731800 0.452267
938.972800 0.360776
939.213800 0.445707
939.454900 0.147961
939.695900 1.701676
939.936900 -0.027601
940.178000 0.104620
940.419000 0.246409
940.660100 0.388427
940.901200 0.054887
941.142200 -0.321462
941.383300 0.578938
941.624400 3.152288
941.865500 0.075077
942.106600 0.307603
942.347700 -0.349564
942.588900 0.208705
942.830000 -0.248148
943.071100 -0.013423
943.312300 0.202276
943.553400 0.059394
943.794600 0.151024
944.035700 0.443250
944.276900 -0.031556
944.518100 3.111934
944.759300 0.172580
945.000500 -0.199980
945.241700 0.415091
945.482900 0.450602
945.724100 0.248370
945.965300 -0.163682
946.206600 0.108736
946.447800 -0.166604
946.689100 0.023233
946.930300 -1.061571
947.171600 0.305817
947.412800 0.179765
947.654100 0.062352
947.895400 3.272538
948.136700 0.015081
948.378000 2.902547
948.619300 0.408499
948.860600 0.428966
949.101900 3.220892
949.343300 0.381961
949.584600 0.053723
949.825900 -0.203949
950.067300 0.138723
950.308600 -0.151214
950.550000 0.025643
950.791400 -0.199439
951.032700 0.064528
951.274100 -0.114596
951.515500 0.287725
951.756900 0.414555
951.998300 0.168743
952.239800 0.600964
952.481200 -0.162414
952.722600 -0.033984
952.964000 0.362222
953.205500 0.376214
953.446900 0.746279
953.688400 -0.173255
953.929900 0.572298
954.171300 -1.022938
954.412800 -0.147868
954.654300 1.248618
954.895800 0.471258
955.137300 -0.178594
955.378800 0.013291
955.620300 -0.147621
955.861800 0.322384
956.103400 -0.014932
956.344900 0.601224
956.586500 0.121106
956.828000 0.297852
957.069600 -0.066787
957.311100 -0.026020
957.552700 0.875327
957.794300 0.029047
958.035900 -0.258538
958.277500 -0.022697
958.519100 0.089977
958.760700 0.256603
959.002300 -0.657800
959.243900 0.724214
959.485600 0.044073
959.727200 -0.177117
959.968800 0.056423
960.210500 -0.011719
960.452200 -0.235543
960.693800 -0.214780
960.935500 0.000000
961.177200 0.085220
961.418900 -0.077570
961.660600 0.789722
961.902300 0.975984
962.144000 -0.460837
962.385700 2.791691
962.627400 0.054580
962.869200 -0.589446
963.110900 -0.155977
963.352700 -0.507419
963.594400 0.139097
963.836200 2.999565
964.077900 0.195537
964.319700 3.145818
964.561500 3.252853
964.803300 0.252758
965.045100 0.167086
965.286900 0.060908
965.528700 -0.006839
965.770500 0.278451
966.012300 0.019158
966.254200 2.791691
966.496000 -0.380447
966.737900 0.093886
966.979700 0.496292
967.221600 0.138303
967.463400 0.291314
967.705300 0.456807
967.947200 2.859739
968.189100 -0.124939
968.431000 0.225717
968.672900 3.067443
968.914800 -0.341243
969.156700 -0.484863
969.398700 0.261042
969.640600 -0.485270
969.882500 0.211114
970.124500 -0.530663
970.366400 0.642489
970.608400 0.475943
970.850400 2.710117
971.092300 2.890421
971.334300 2.990339
971.576300 -0.321854
971.818300 0.590858
972.060300 0.405902
972.302300 0.312238
972.544300 -0.141416
972.786400 1.175092
973.028400 0.146128
973.270400 3.206826
973.512500 0.738034
973.754500 -0.081497
973.996600 0.573153
974.238700 0.379494
974.480700 0.432094
974.722800 3.171434
974.964900 0.318159
975.207000 -0.040863
975.449100 -0.705691
975.691200 -0.100172
975.933300 -0.286810
976.175500 -2.862131
976.417600 0.986695
976.659700 -0.113667
976.901900 0.507055
977.144000 0.210296
977.386200 0.178048
977.628300 0.261446
977.870500 3.139249
978.112700 0.162859
978.354900 2.775974
978.597100 -0.429284
978.839300 -0.038933
979.081500 0.152435
979.323700 -2.613842
979.565900 -0.653945
979.808200 0.415870
980.050400 0.036010
980.292600 0.087955
980.534900 -0.153297
980.777100 0.516431
981.019400 -0.238853
981.261700 3.201124
981.504000 0.601477
981.746200 -0.540508
981.988500 0.668866
982.230800 0.936269
982.473100 0.578726
982.715500 0.182180
982.957800 -0.306510
983.200100 -0.053809
983.442400 -0.120122
983.684800 -0.306510
983.927100 0.194939
984.169500 0.563823
984.411800 -0.263587
984.654200 -0.578631
984.896600 3.082785
985.139000 -1.796901
985.381400 0.515679
985.623800 0.343528
985.866200 -0.013318
986.108600 0.000000
986.351000 -0.257620
986.593400 0.305654
986.835800 0.179860
987.078300 -0.300126
987.320700 -0.158127
987.563200 0.356311
987.805600 -0.126606
988.048100 0.553726
988.290600 2.760422
988.533100 -2.421604
988.775600 2.980458
989.018000 3.115278
989.260500 -0.127158
989.503100 -2.541579
989.745600 2.123852
989.988100 -2.849419
990.230600 -0.173540
990.473200 -0.354750
990.715700 0.478804
990.958200 2.523746
991.200800 0.068381
991.443400 -3.172311
991.685900 2.710117
991.928500 -2.344392
992.171100 -0.186030
992.413700 3.125806
992.656300 1.656517
992.898900 2.866287
993.141500 0.068581
993.384100 -0.031091
993.626700 3.093772
993.869400 0.561765
994.112000 -0.262377
994.354700 3.165244
994.597300 -0.096910
994.840000 -3.000868
995.082600 2.480007
995.325300 -0.604969
995.568000 -0.213848
995.810700 2.127105
996.053400 0.351740
996.296100 -0.022050
996.538800 0.234758
996.781500 0.296659
997.024200 -0.336388
997.267000 2.791691
997.509700 0.118117
997.752400 -0.337213
997.995200 -0.283703
998.237900 0.357176
998.480700 2.890421
998.723500 0.000000
998.966200 0.147957
999.209000 0.000000
999.451800 0.462312
999.694600 3.025715
999.937400 -0.734631
1000.180200 0.256228
1000.423000 3.101403
1000.665900 0.250893
1000.908700 0.095169
1001.151500 -0.371102
1001.394400 2.745075
1001.637200 0.879800
1001.880100 -2.000723
1002.123000 -0.279809
1002.365800 -0.178991
1002.608700 0.013543
1002.851600 0.322219
1003.094500 0.050530
1003.337400 2.217484
1003.580300 -2.344392
1003.823200 2.414973
1004.066100 0.198549
1004.309100 -0.102837
1004.552000 0.586996
1004.794900 -0.365945
1005.037900 0.137699
1005.280800 -0.002031
1005.523800 3.183555
1005.766700 -0.078228
1006.009700 0.094482
1006.252700 -1.041393
1006.495700 0.327192
1006.738700 -2.972666
1006.981700 -0.004422
1007.224700 -0.646295
1007.467700 -0.505948
1007.710700 0.632937
1007.953800 3.146128
1008.196800 2.736397
1008.439800 0.740501
1008.682900 -0.116246
1008.925900 -0.022311
1009.169000 -0.047229
1009.412100 -1.505150
1009.655100 -0.889576
1009.898200 3.108227
1010.141300 -0.262512
1010.384400 0.377353
1010.627500 -0.526048
1010.870600 0.417833
1011.113700 3.086360
1011.356800 2.820201
1011.600000 0.549672
1011.843100 -0.180538
1012.086300 -2.198657
1012.329400 0.271928
1012.572600 0.000000
1012.815700 -0.579708
1013.058900 -1.724276
1013.302100 -0.048803
1013.545200 -0.241270
1013.788400 0.258807
1014.031600 -3.098644
1014.274800 0.143724
1014.518000 3.161967
1014.761300 3.177536
1015.004500 -1.869232
1015.247700 0.596124
1015.490900 0.000000
1015.734200 0.784955
1015.977400 -0.734158
1016.220700 -3.035830
1016.464000 2.853090
1016.707200 -0.893529
1016.950500 2.378398
1017.193800 0.099738
1017.437100 -0.498405
1017.680400 0.499705
1017.923700 2.975891
1018.167000 1.362493
1018.410300 -0.052029
1018.653600 -0.113536
1018.896900 3.021603
1019.140300 1.525045
1019.383600 2.662758
1019.627000 2.950851
1019.870300 2.465383
1020.113700 3.183555
1020.357100 2.575188
1020.600400 -0.020784
1020.843800 0.376768
1021.087200 0.218573
1021.330600 -2.198657
1021.574000 0.375295
1021.817400 0.000000
1022.060800 -3.172311
1022.304200 0.000000
1022.547700 0.052583
1022.791100 2.432969
1023.034500 -0.107732
