# Wavelength	Absorbance
197.780200 -0.277118
197.984200 0.999464
198.188200 3.093772
198.392200 2.682145
198.596300 -0.086095
198.800300 2.318063
199.004400 -0.005725
199.208500 2.866287
199.412600 0.868216
199.616800 2.768638
199.820900 2.465383
200.025100 0.719584
200.229200 -0.426528
200.433400 0.575631
200.637600 2.745075
200.841800 0.118099
201.046100 3.008600
201.250300 3.142702
201.454600 0.501561
201.658900 0.475965
201.863100 -0.084062
202.067400 0.007606
202.271800 1.185287
202.476100 2.896526
202.680500 -0.228009
202.884800 2.980458
203.089200 0.039872
203.293600 -0.082294
203.498000 2.913284
203.702400 2.336460
203.906900 -1.436460
204.111300 0.000000
204.315800 -0.150168
204.520300 0.629989
204.724800 0.012523
204.929300 2.396199
205.133800 0.253039
205.338400 -0.020532
205.543000 0.469866
205.747500 2.682145
205.952100 0.701786
206.156700 3.034628
206.361400 -3.012837
206.566000 2.187521
206.770600 0.212034
206.975300 -0.138503
207.180000 0.845098
207.384700 -0.467667
207.589400 -2.945469
207.794100 2.480007
207.998900 -0.609510
208.203600 0.469241
208.408400 -0.171891
208.613200 2.820201
208.818000 2.495544
209.022800 2.414973
209.227600 0.083805
209.432500 0.818043
209.637300 -0.113471
209.842200 2.294466
210.047100 -0.067637
210.252000 -0.568098
210.456900 -0.007412
210.661800 3.055378
210.866800 0.100937
211.071800 1.095887
211.276700 -0.130672
211.481700 2.736397
211.686700 0.108711
211.891800 2.480007
212.096800 0.445839
212.301800 2.890421
212.506900 3.209783
212.712000 0.087150
212.917100 -0.010699
213.122200 2.866287
213.327300 -0.046983
213.532500 0.000000
213.737600 -0.194986
213.942800 -0.330993
214.148000 0.271608
214.353200 0.000000
214.558400 -0.259205
214.763600 0.399002
214.968900 -0.232841
215.174100 0.529299
215.379400 -3.247482
215.584700 2.846955
215.790000 0.222952
215.995300 2.820201
216.200700 2.806180
216.406000 2.902003
216.611400 2.587711
216.816800 -0.056637
217.022200 -0.245111
217.227600 0.816847
217.433000 2.536558
217.638400 3.047275
217.843900 0.079527
218.049400 0.000000
218.254800 0.271190
218.460300 0.084321
218.665900 -0.039668
218.871400 0.268376
219.076900 2.990339
219.282500 0.208130
219.488100 -0.258506
219.693600 -0.106517
219.899200 0.204308
220.104900 0.025184
220.310500 -1.067980
220.516100 -3.047275
220.721800 0.273366
220.927500 3.071145
221.133200 2.902003
221.338900 -0.136617
221.544600 2.846955
221.750300 0.217413
221.956100 -0.078015
222.161800 -0.380875
222.367600 0.417740
222.573400 -0.125185
222.779200 -2.359835
222.985000 -2.812913
223.190900 1.108966
223.396700 -0.257346
223.602600 -0.640312
223.808500 0.827911
224.014400 1.262634
224.220300 1.027022
224.426200 -0.461081
224.632200 0.510057
224.838100 0.091770
225.044100 -0.115426
225.250100 2.550228
225.456100 -0.609713
225.662100 2.632457
225.868100 2.127105
226.074200 -0.103939
226.280200 -3.021603
226.486300 0.577442
226.692400 -2.985426
226.898500 0.943041
227.104600 -0.607537
227.310700 0.490758
227.516900 -0.340566
227.723000 -0.834374
227.929200 0.181708
228.135400 -0.146076
228.341600 -0.256308
228.547800 0.465762
228.754100 3.003891
228.960300 0.028029
229.166600 -2.752816
229.372900 0.171552
229.579100 0.465563
229.785500 2.791691
229.991800 0.845098
230.198100 0.464661
230.404500 1.963788
230.610800 -0.097168
230.817200 -1.255273
231.023600 0.226720
231.230000 -0.509520
231.436400 0.148397
231.642900 2.718502
231.849300 2.791691
232.055800 2.008600
232.262300 3.280123
232.468800 1.959041
232.675300 1.110503
232.881800 -0.385543
233.088400 -0.423128
233.294900 2.550228
233.501500 0.133365
233.708100 -1.255273
233.914700 0.187217
234.121300 0.000000
234.327900 -0.050668
234.534600 -0.145224
234.741300 -0.175165
234.947900 2.736397
235.154600 0.244233
235.361300 3.122544
235.568000 0.076547
235.774800 0.504395
235.981500 0.292780
236.188300 -2.523746
236.395100 0.121044
236.601800 0.000000
236.808700 0.162296
237.015500 0.120688
237.222300 -0.308268
237.429200 3.265290
237.636000 0.467781
237.842900 -0.850310
238.049800 -0.296819
238.256700 -0.482874
238.463600 0.097192
238.670600 -0.005080
238.877500 0.638220
239.084500 0.000000
239.291500 0.562641
239.498500 2.245513
239.705500 -0.411926
239.912500 1.845098
240.119500 -0.992851
240.326600 -0.924946
240.533700 -2.956168
240.740700 -0.508191
240.947800 0.206435
241.154900 0.563640
241.362100 0.557998
241.569200 -0.406163
241.776400 0.246314
241.983500 -0.082384
242.190700 0.379457
242.397900 -3.129368
242.605100 0.759668
242.812400 2.587711
243.019600 0.021401
243.226900 2.710117
243.434100 0.270819
243.641400 -0.165606
243.848700 0.008946
244.056000 -2.315970
244.263400 -0.010488
244.470700 -0.097627
244.678100 0.087669
244.885400 0.547529
245.092800 0.039681
245.300200 -0.508352
245.507600 0.137440
245.715100 3.034628
245.922500 0.147603
246.130000 -1.715020
246.337500 3.183555
246.544900 -0.494222
246.752400 1.046889
246.960000 3.165244
247.167500 0.997889
247.375000 0.000000
247.582600 -0.116987
247.790200 -0.514737
247.997800 3.025715
248.205400 1.173020
248.413000 2.872739
248.620600 2.727541
248.828300 0.222938
249.035900 3.030600
249.243600 -0.080579
249.451300 0.922560
249.659000 -0.172359
249.866700 -0.118927
250.074500 1.217742
250.282200 3.189490
250.490000 0.804119
250.697800 2.846955
250.905600 0.571522
251.113400 2.929930
251.321200 0.053349
251.529000 -0.710731
251.736900 3.177536
251.944700 0.296253
252.152600 3.289589
252.360500 1.119053
252.568400 0.572853
252.776300 2.397940
252.984300 -0.350850
253.192200 2.985426
253.400200 0.044582
253.608200 2.599883
253.816200 3.282396
254.024200 -0.221033
254.232200 -0.789147
254.440200 -2.089905
254.648300 -0.404973
254.856400 2.701568
255.064400 0.416139
255.272500 -0.003455
255.480600 0.483652
255.688800 0.000000
255.896900 -0.270835
256.105100 3.284882
256.313200 2.752816
256.521400 0.043466
256.729600 0.342668
256.937800 3.171434
257.146000 -0.340290
257.354300 -2.683047
257.562500 0.628932
257.770800 -1.778151
257.979100 1.105441
258.187400 -0.142107
258.395700 -0.204344
258.604000 3.034628
258.812400 0.395332
259.020700 0.427334
259.229100 -0.021506
259.437500 -0.028000
259.645900 1.189782
259.854300 2.878522
260.062700 -0.010605
260.271100 2.621176
260.479600 0.880120
260.688100 0.653808
260.896500 0.454202
261.105000 2.089905
261.313500 -0.257346
261.522100 -0.072671
261.730600 0.282260
261.939200 2.701568
262.147700 0.831532
262.356300 -0.067839
262.564900 -0.376725
262.773500 -0.186360
262.982200 0.042742
263.190800 0.000000
263.399500 0.051186
263.608100 0.440227
263.816800 -0.036517
264.025500 -0.616638
264.234200 -0.543205
264.442900 2.053078
264.651700 0.195601
264.860400 0.884607
265.069200 0.149150
265.278000 0.066060
265.486800 0.009749
265.695600 2.450249
265.904400 -0.280873
266.113300 -0.335120
266.322100 0.107165
266.531000 -0.441930
266.739900 2.294466
266.948800 3.125806
267.157700 -0.091096
267.366600 3.055378
267.575500 -0.279479
267.784500 -0.151340
267.993500 -0.068576
268.202400 0.143442
268.411400 3.021603
268.620500 2.761176
268.829500 0.686069
269.038500 -0.474939
269.247600 0.809306
269.456600 -1.077760
269.665700 0.390484
269.874800 0.154595
270.083900 0.789890
270.293100 0.000000
270.502200 0.121345
270.711400 -1.099237
270.920500 -0.196410
271.129700 1.730154
271.338900 -0.094173
271.548100 2.691965
271.757300 -0.125445
271.966600 -0.180724
272.175800 3.277609
272.385100 0.667197
272.594400 2.970812
272.803700 1.113118
273.013000 2.799341
273.222300 -0.247536
273.431600 -0.179344
273.641000 3.209783
273.850400 0.037867
274.059700 -0.183407
274.269100 3.209515
274.478500 0.733368
274.688000 0.342821
274.897400 1.275223
275.106900 -1.635277
275.316300 -0.112824
275.525800 0.403370
275.735300 -2.827369
275.944800 2.965672
276.154300 0.393245
276.363900 3.012837
276.573400 2.840106
276.783000 -0.177030
276.992600 0.225779
277.202200 0.034438
277.411800 -0.075990
277.621400 -0.373518
277.831000 0.334692
278.040700 0.311249
278.250300 2.820201
278.460000 0.122594
278.669700 0.297411
278.879400 -0.420729
279.089100 2.691965
279.298900 0.712446
279.508600 1.434651
279.718400 0.178998
279.928100 0.000000
280.137900 0.229947
280.347700 0.033667
280.557600 0.259378
280.767400 0.606048
280.977200 0.135760
281.187100 -1.908485
281.397000 3.089905
281.606900 -2.736397
281.816800 0.286001
282.026700 -0.378462
282.236600 0.044582
282.446600 0.070581
282.656500 -1.778151
282.866500 2.791691
283.076500 2.338456
283.286500 0.591531
283.496500 -0.098768
283.706500 0.171015
283.916600 -0.163907
284.126600 -2.158793
284.336700 0.876237
284.546800 -0.527567
284.756900 3.025715
284.967000 0.112623
285.177100 0.274331
285.387300 -2.008600
285.597400 0.927128
285.807600 -1.253287
286.017800 0.090126
286.228000 -3.086360
286.438200 -0.070859
286.648400 0.298052
286.858700 3.265290
287.068900 0.024026
287.279200 0.757050
287.489500 -0.487030
287.699800 3.158965
287.910100 -0.269245
288.120400 -0.258506
288.330800 2.220108
288.541100 3.352954
288.751500 -0.595429
288.961900 0.655218
289.172300 -2.890421
289.382700 3.074816
289.593100 2.913284
289.803500 -2.550228
290.014000 2.980458
290.224500 0.028990
290.434900 -2.985426
290.645400 0.775303
290.855900 0.220243
291.066500 0.377490
291.277000 -0.168991
291.487500 0.032242
291.698100 0.049307
291.908700 -0.865663
292.119300 3.059185
292.329900 0.164447
292.540500 0.819869
292.751100 0.000000
292.961800 -3.012837
293.172400 -0.014957
293.383100 0.000000
293.593800 0.777273
293.804500 -0.125632
294.015200 0.114171
294.226000 -2.798651
294.436700 2.799341
294.647500 2.866287
294.858200 0.044622
295.069000 -0.030981
295.279800 0.017065
295.490600 -2.966142
295.701500 -0.063031
295.912300 1.074185
296.123200 0.672540
296.334000 -0.146956
296.544900 0.918869
296.755800 3.220892
296.966700 0.135760
297.177700 2.945961
297.388600 1.343939
297.599500 -0.809306
297.810500 0.019113
298.021500 0.110599
298.232500 -0.180620
298.443500 1.690196
298.654500 1.087631
298.865600 1.217321
299.076600 -0.609510
299.287700 -2.975891
299.498800 0.266121
299.709900 -0.253637
299.921000 0.163372
300.132100 0.769107
300.343200 0.285019
300.554400 -0.445996
300.765500 0.254908
300.976700 -2.621176
301.187900 0.706547
301.399100 2.813581
301.610300 0.465667
301.821500 0.149365
302.032800 0.402919
302.244100 0.051309
302.455300 0.313701
302.666600 0.128330
302.877900 1.067980
303.089200 -0.284530
303.300600 0.992299
303.511900 2.970812
303.723300 1.146128
303.934600 0.334567
304.146000 -2.310542
304.357400 -0.542922
304.568800 -0.019332
304.780300 1.033926
304.991700 -0.371022
305.203100 2.271842
305.414600 0.285098
305.626100 2.294466
305.837600 0.071756
306.049100 0.252228
306.260600 0.653213
306.472200 -0.656490
306.683700 -0.039466
306.895300 2.575188
307.106900 0.962211
307.318400 -0.133574
307.530100 0.126624
307.741700 2.806180
307.953300 -0.016652
308.165000 0.000000
308.376600 0.319821
308.588300 1.024809
308.800000 -0.036918
309.011700 3.215109
309.223400 -0.003561
309.435100 -0.302567
309.646900 -0.253666
309.858600 0.785483
310.070400 -0.063522
310.282200 -1.708482
310.494000 0.362850
310.705800 3.168203
310.917600 0.310878
311.129500 0.344562
311.341300 0.383162
311.553200 0.278410
311.765100 1.230764
311.977000 3.142702
312.188900 0.572315
312.400800 3.030600
312.612700 0.437649
312.824700 3.292034
313.036600 -0.132847
313.248600 0.418750
313.460600 2.999565
313.672600 3.275081
313.884600 3.086360
314.096700 2.599883
314.308700 0.774394
314.520800 0.609284
314.732800 0.467774
314.944900 3.146128
315.157000 0.522126
315.369200 3.082785
315.581300 0.532557
315.793400 2.653213
316.005600 0.291339
316.217700 0.808367
316.429900 0.521283
316.642100 0.384299
316.854300 0.227484
317.066600 0.320743
317.278800 0.213019
317.491100 3.192289
317.703300 0.672559
317.915600 2.041173
318.127900 0.424157
318.340200 3.097604
318.552500 0.427903
318.764900 3.139249
318.977200 0.433701
319.189600 3.030195
319.401900 0.058479
319.614300 0.721272
319.826700 0.197532
320.039200 0.280067
320.251600 0.462679
320.464000 3.336260
320.676500 3.265290
320.889000 -0.030161
321.101400 0.144769
321.313900 3.310268
321.526500 0.318418
321.739000 3.376577
321.951500 0.357625
322.164100 3.132580
322.376600 0.421827
322.589200 3.362859
322.801800 3.327767
323.014400 0.520239
323.227000 0.570973
323.439700 3.437433
323.652300 0.363065
323.865000 3.374748
324.077700 1.288595
324.290400 3.310268
324.503100 0.235877
324.715800 1.181670
324.928500 0.875469
325.141200 3.384174
325.354000 0.441063
325.566800 0.814687
325.779600 0.395903
325.992400 0.916770
326.205200 1.384214
326.418000 3.474362
326.630800 1.673010
326.843700 0.922854
327.056600 0.903811
327.269400 3.416973
327.482300 0.763351
327.695200 3.385964
327.908200 0.522969
328.121100 3.453930
328.334000 1.238155
328.547000 3.636688
328.760000 0.649002
328.973000 0.442897
329.186000 3.564311
329.399000 1.854851
329.612000 0.931766
329.825100 0.821452
330.038100 0.913357
330.251200 0.587445
330.464300 0.522212
330.677400 3.635484
330.890500 0.577685
331.103600 3.526469
331.316700 0.706966
331.529900 3.658298
331.743100 2.328606
331.956200 1.111111
332.169400 0.592410
332.382600 0.899700
332.595900 0.584960
332.809100 1.206826
333.022300 0.385823
333.235600 0.648042
333.448900 0.480884
333.662200 3.609381
333.875500 1.350360
334.088800 3.518251
334.302100 1.471008
334.515400 1.071902
334.728800 0.940303
334.942200 3.626956
335.155500 0.604349
335.368900 1.206636
335.582300 1.482516
335.795800 0.472848
336.009200 0.916454
336.222700 3.666237
336.436100 0.646439
336.649600 3.795949
336.863100 3.676053
337.076600 3.787035
337.290100 1.098923
337.503600 1.402585
337.717200 1.235544
337.930700 1.198970
338.144300 3.781037
338.357900 0.815557
338.571500 1.165441
338.785100 3.703205
338.998700 0.744974
339.212400 0.829886
339.426000 3.712144
339.639700 3.667266
339.853300 1.241848
340.067000 3.741388
340.280700 1.012778
340.494500 3.790074
340.708200 0.843540
340.921900 1.012740
341.135700 0.644524
341.349500 3.731266
341.563300 0.566454
341.777100 3.818094
341.990900 0.990432
342.204700 3.816042
342.418500 1.167664
342.632400 1.921975
342.846300 1.217987
343.060100 2.101958
343.274000 0.769658
343.487900 0.958464
343.701900 1.479214
343.915800 1.703117
344.129700 0.730909
344.343700 1.058675
344.557700 1.008307
344.771700 1.056878
344.985700 3.914502
345.199700 1.310738
345.413700 1.125010
345.627700 0.779441
345.841800 3.870521
346.055900 3.854124
346.269900 0.621162
346.484000 1.990130
346.698100 0.821795
346.912300 0.613299
347.126400 0.911255
347.340600 3.899164
347.554700 0.656922
347.768900 0.891565
347.983100 1.320881
348.197300 3.889246
348.411500 1.357124
348.625700 3.866760
348.840000 3.898615
349.054200 3.926085
349.268500 2.174738
349.482800 1.060642
349.697100 0.706261
349.911400 1.608319
350.125700 1.268107
350.340000 3.937869
350.554400 0.843785
350.768700 3.912806
350.983100 0.762181
351.197500 3.889246
351.411900 1.038969
351.626300 3.954918
351.840700 1.261464
352.055200 0.946540
352.269600 0.983580
352.484100 1.400623
352.698600 1.630237
352.913100 0.940688
353.127600 0.885121
353.342100 1.789904
353.556600 3.994713
353.771200 1.647699
353.985800 3.943643
354.200300 0.927007
354.414900 3.981093
354.629500 1.591172
354.844100 0.757232
355.058800 1.754395
355.273400 3.971369
355.488100 0.833499
355.702700 0.829481
355.917400 0.883541
356.132100 1.746014
356.346800 3.982000
356.561500 1.644529
356.776300 0.737287
356.991000 1.480145
357.205800 1.203360
357.420600 1.672232
357.635300 1.360869
357.850100 4.018617
358.065000 1.046466
358.279800 0.712673
358.494600 1.069574
358.709500 1.000042
358.924300 3.975799
359.139200 4.039216
359.354100 3.988202
359.569000 1.849172
359.783900 1.366088
359.998900 0.910189
360.213800 4.019947
360.428800 1.077861
360.643800 1.058218
360.858700 3.960946
361.073700 4.040048
361.288800 0.963323
361.503800 1.070283
361.718800 1.836834
361.933900 4.009323
362.148900 1.799382
362.364000 1.529330
362.579100 1.379798
362.794200 1.046818
363.009300 4.072250
363.224500 1.671371
363.439600 1.068112
363.654800 0.892287
363.869900 1.082696
364.085100 4.019947
364.300300 4.010681
364.515500 2.140617
364.730800 1.441669
364.946000 1.008333
365.161200 1.311929
365.376500 1.173076
365.591800 4.054805
365.807100 1.179669
366.022400 4.056447
366.237700 4.078022
366.453000 2.340411
366.668400 1.999470
366.883700 4.063634
367.099100 1.456446
367.314500 0.876185
367.529900 4.111531
367.745300 0.985310
367.960700 0.915025
368.176100 1.569325
368.391600 2.011945
368.607000 1.736365
368.822500 1.713961
369.038000 1.063813
369.253500 1.287492
369.469000 1.763886
369.684500 1.978612
369.900100 0.887862
370.115600 0.925224
370.331200 1.361451
370.546800 2.512944
370.762400 4.131266
370.978000 4.107990
371.193600 4.104351
371.409200 4.124798
371.624900 0.950926
371.840500 1.559952
372.056200 1.427993
372.271900 1.070933
372.487600 1.158581
372.703300 1.346012
372.919000 1.570049
373.134800 0.805636
373.350500 1.120797
373.566300 1.178746
373.782000 4.160709
373.997800 4.169498
374.213600 2.009575
374.429400 1.340243
374.645300 1.562442
374.861100 1.221849
375.077000 1.571558
375.292800 1.328631
375.508700 4.212241
375.724600 1.812646
375.940500 1.352117
376.156400 0.832638
376.372400 1.926397
376.588300 1.214776
376.804300 4.234720
377.020300 4.247581
377.236200 1.194993
377.452200 4.269816
377.668200 1.686432
377.884300 1.314889
378.100300 4.253265
378.316400 1.975909
378.532400 1.336025
378.748500 1.460622
378.964600 1.485083
379.180700 2.218489
379.396800 1.598857
379.612900 1.155645
379.829100 1.442106
380.045200 1.622059
380.261400 1.503078
380.477600 1.189718
380.693800 1.111099
380.910000 1.395669
381.126200 1.534358
381.342400 2.003989
381.558700 1.422212
381.774900 4.288607
381.991200 0.972284
382.207500 1.916728
382.423800 1.873671
382.640100 1.720377
382.856400 1.173133
383.072800 3.064229
383.289100 1.365616
383.505500 1.379289
383.721900 1.566538
383.938200 1.526558
384.154600 1.504366
384.371100 2.068266
384.587500 1.327189
384.803900 4.366890
385.020400 1.734333
385.236800 4.356332
385.453300 1.137268
385.669800 4.340702
385.886300 1.384854
386.102800 4.360120
386.319400 1.122787
386.535900 1.708272
386.752500 1.375743
386.969000 1.703972
387.185600 4.362124
387.402200 2.040374
387.618800 1.196453
387.835500 1.732655
388.052100 1.681324
388.268700 1.201534
388.485400 1.176418
388.702100 1.376286
388.918800 2.042546
389.135500 2.642893
389.352200 1.370188
389.568900 4.384425
389.785600 1.153449
390.002400 1.834967
390.219200 1.110599
390.435900 1.674431
390.652700 1.474459
390.869500 1.614151
391.086300 1.770165
391.303200 4.430817
391.520000 1.014377
391.736900 4.423459
391.953700 1.974187
392.170600 4.445028
392.387500 1.164546
392.604400 1.615284
392.821300 1.335411
393.038300 1.210716
393.255200 1.290577
393.472200 1.345984
393.689100 1.443453
393.906100 1.182050
394.123100 1.428745
394.340100 1.111044
394.557200 1.171621
394.774200 1.385819
394.991200 1.276444
395.208300 1.004919
395.425400 1.158419
395.642500 1.395907
395.859600 0.929896
396.076700 1.120874
396.293800 0.991330
396.510900 1.146553
396.728100 1.208986
396.945300 1.283023
397.162400 1.332330
397.379600 0.997568
397.596800 0.911719
397.814000 1.062773
398.031300 0.938226
398.248500 1.158397
398.465800 1.071041
398.683000 1.235793
398.900300 1.030125
399.117600 1.134172
399.334900 0.851042
399.552200 1.031772
399.769600 1.036181
399.986900 1.011331
400.204300 0.923336
400.421600 0.981895
400.639000 0.961738
400.856400 0.985110
401.073800 0.938918
401.291200 1.035273
401.508700 0.855753
401.726100 0.730956
401.943600 0.919294
402.161000 0.881508
402.378500 0.929354
402.596000 0.791867
402.813500 0.851757
403.031000 0.878286
403.248600 0.817370
403.466100 0.785317
403.683700 0.772636
403.901300 0.922211
404.118900 0.819625
404.336500 0.987972
404.554100 0.782394
404.771700 0.786123
404.989300 0.779590
405.207000 0.841754
405.424600 0.773990
405.642300 0.898478
405.860000 0.745696
406.077700 0.732287
406.295400 0.805038
406.513100 0.808367
406.730900 0.657616
406.948600 0.721246
407.166400 0.820376
407.384200 0.782169
407.602000 0.699831
407.819800 0.726724
408.037600 0.697545
408.255400 0.744213
408.473300 0.649555
408.691100 0.676318
408.909000 0.699530
409.126900 0.827147
409.344800 0.671402
409.562700 0.676596
409.780600 0.733656
409.998500 0.681388
410.216500 0.737882
410.434400 0.631183
410.652400 0.741342
410.870400 0.694956
411.088400 0.601353
411.306400 0.676285
411.524400 0.657591
411.742400 0.609268
411.960500 0.660813
412.178500 0.631387
412.396600 0.659027
412.614700 0.613439
412.832800 0.565072
413.050900 0.593750
413.269000 0.644466
413.487100 0.604168
413.705300 0.731812
413.923400 0.586239
414.141600 0.631869
414.359800 0.590968
414.578000 0.599095
414.796200 0.499247
415.014400 0.661494
415.232600 0.596483
415.450900 0.619477
415.669200 0.565267
415.887400 0.633792
416.105700 0.600832
416.324000 0.533477
416.542300 0.590948
416.760600 0.556597
416.979000 0.523877
417.197300 0.546932
417.415700 0.532343
417.634100 0.559434
417.852400 0.516807
418.070800 0.506100
418.289300 0.587890
418.507700 0.525355
418.726100 0.503088
418.944600 0.518623
419.163000 0.508946
419.381500 0.531615
419.600000 0.463637
419.818500 0.552307
420.037000 0.483990
420.255500 0.488293
420.474100 0.489894
420.692600 0.536094
420.911200 0.515482
421.129800 0.574731
421.348300 0.450467
421.566900 0.459739
421.785600 0.499382
422.004200 0.465612
422.222800 0.513607
422.441500 0.505703
422.660100 0.422138
422.878800 0.510387
423.097500 0.467911
423.316200 0.498002
423.534900 0.472995
423.753600 0.499628
423.972400 0.469463
424.191100 0.485723
424.409900 0.470065
424.628700 0.439819
424.847500 0.481100
425.066300 0.484253
425.285100 0.460880
425.503900 0.473851
425.722800 0.462472
425.941600 0.431726
426.160500 0.452940
426.379300 0.430425
426.598200 0.420595
426.817100 0.422757
427.036100 0.441757
427.255000 0.425810
427.473900 0.436054
427.692900 0.431281
427.911800 0.454150
428.130800 0.439393
428.349800 0.455521
428.568800 0.480426
428.787800 0.457380
429.006800 0.386406
429.225900 0.422293
429.444900 0.456682
429.664000 0.385622
429.883100 0.422532
430.102200 0.451074
430.321300 0.465729
430.540400 0.430304
430.759500 0.472209
430.978700 0.426414
431.197800 0.453542
431.417000 0.399275
431.636200 0.415426
431.855300 0.451157
432.074500 0.420189
432.293800 0.427263
432.513000 0.390073
432.732200 0.378989
432.951500 0.418264
433.170700 0.428539
433.390000 0.414000
433.609300 0.442695
433.828600 0.405444
434.047900 0.429868
434.267300 0.395506
434.486600 0.390531
434.705900 0.457351
434.925300 0.398613
435.144700 0.428217
435.364100 0.427125
435.583500 0.438569
435.802900 0.413498
436.022300 0.412808
436.241800 0.412627
436.461200 0.485723
436.680700 0.372148
436.900100 0.463133
437.119600 0.420562
437.339100 0.420340
437.558600 0.434155
437.778200 0.433647
437.997700 0.427346
438.217300 0.386980
438.436800 0.387782
438.656400 0.423677
438.876000 0.363516
439.095600 0.351550
439.315200 0.420787
439.534800 0.390990
439.754500 0.395822
439.974100 0.395187
440.193800 0.426898
440.413500 0.469677
440.633100 0.434299
440.852800 0.416022
441.072500 0.405536
441.292300 0.357789
441.512000 0.372601
441.731800 0.410758
441.951500 0.421251
442.171300 0.434436
442.391100 0.425416
442.610900 0.435628
442.830700 0.395675
443.050500 0.422943
443.270300 0.408604
443.490200 0.410177
443.710100 0.420572
443.929900 0.441823
444.149800 0.405791
444.369700 0.458451
444.589600 0.435140
444.809500 0.463221
445.029500 0.458832
445.249400 0.467660
445.469400 0.438327
445.689400 0.415776
445.909300 0.433180
446.129300 0.439513
446.349300 0.433458
446.569400 0.444504
446.789400 0.406892
447.009400 0.460470
447.229500 0.465847
447.449600 0.475173
447.669600 0.454097
447.889700 0.437463
448.109800 0.454633
448.330000 0.465531
448.550100 0.443480
448.770200 0.455515
448.990400 0.437102
449.210600 0.488158
449.430700 0.452102
449.650900 0.455765
449.871100 0.473235
450.091400 0.459825
450.311600 0.455012
450.531800 0.447782
450.752100 0.471174
450.972400 0.460187
451.192600 0.482487
451.412900 0.456456
451.633200 0.482938
451.853500 0.472362
452.073900 0.515221
452.294200 0.495530
452.514600 0.468677
452.734900 0.476890
452.955300 0.447047
453.175700 0.432902
453.396100 0.450323
453.616500 0.531372
453.836900 0.519742
454.057400 0.453770
454.277800 0.462867
454.498300 0.494960
454.718800 0.484233
454.939300 0.544728
455.159700 0.509639
455.380300 0.554477
455.600800 0.512774
455.821300 0.526518
456.041900 0.558624
456.262400 0.458787
456.483000 0.485093
456.703600 0.470009
456.924200 0.477574
457.144800 0.531353
457.365400 0.551962
457.586000 0.532010
457.806700 0.494206
458.027400 0.570145
458.248000 0.545372
458.468700 0.524903
458.689400 0.550277
458.910100 0.551252
459.130800 0.590701
459.351600 0.568892
459.572300 0.543004
459.793100 0.604352
460.013800 0.551710
460.234600 0.602043
460.455400 0.558907
460.676200 0.518702
460.897000 0.545144
461.117800 0.594379
461.338700 0.603970
461.559500 0.594531
461.780400 0.628189
462.001300 0.556368
462.222200 0.625962
462.443100 0.666922
462.664000 0.574586
462.884900 0.627218
463.105900 0.580835
463.326800 0.570373
463.547800 0.653489
463.768700 0.616440
463.989700 0.590273
464.210700 0.645184
464.431700 0.631445
464.652800 0.694014
464.873800 0.619563
465.094800 0.634672
465.315900 0.658894
465.537000 0.621291
465.758100 0.725493
465.979200 0.696536
466.200300 0.675885
466.421400 0.676458
466.642500 0.660832
466.863700 0.637196
467.084800 0.714368
467.306000 0.708381
467.527200 0.703922
467.748400 0.614560
467.969600 0.741642
468.190800 0.723242
468.412000 0.825546
468.633300 0.724800
468.854500 0.764491
469.075800 0.673926
469.297000 0.709517
469.518300 0.796947
469.739600 0.777663
469.961000 0.691749
470.182300 0.728020
470.403600 0.699023
470.625000 0.748247
470.846300 0.794150
471.067700 0.845456
471.289100 0.636953
471.510500 0.789251
471.731900 0.730531
471.953300 0.719653
472.174800 0.801843
472.396200 0.699652
472.617700 0.805333
472.839100 0.717863
473.060600 0.759938
473.282100 0.766312
473.503600 0.792925
473.725100 0.912640
473.946700 0.783216
474.168200 0.794224
474.389800 0.942051
474.611300 0.764057
474.832900 0.790660
475.054500 0.853161
475.276100 0.914774
475.497700 0.919504
475.719300 0.819134
475.941000 0.799556
476.162600 0.766657
476.384300 0.828418
476.606000 0.832007
476.827700 0.842689
477.049400 0.837257
477.271100 0.806654
477.492800 0.868054
477.714500 0.834247
477.936300 0.918989
478.158000 0.928748
478.379800 0.937715
478.601600 0.960994
478.823400 0.923435
479.045200 0.878530
479.267000 0.933552
479.488800 0.868521
479.710700 0.869829
479.932500 0.912977
480.154400 0.921528
480.376300 0.892456
480.598200 0.882852
480.820100 1.011049
481.042000 0.907107
481.263900 0.954687
481.485900 0.990093
481.707800 1.032030
481.929800 0.942342
482.151700 1.042816
482.373700 0.964729
482.595700 1.205261
482.817700 0.868241
483.039800 0.902322
483.261800 0.962353
483.483800 1.061815
483.705900 1.096283
483.928000 0.957873
484.150100 1.036976
484.372100 0.995067
484.594300 0.992696
484.816400 1.027551
485.038500 1.004826
485.260600 1.081440
485.482800 1.094194
485.705000 1.042821
485.927100 1.050275
486.149300 1.081636
486.371500 1.090609
486.593700 1.113833
486.816000 1.026689
487.038200 1.018907
487.260500 1.116784
487.482700 1.287234
487.705000 1.129357
487.927300 1.075300
488.149600 1.079811
488.371900 1.159129
488.594200 1.006210
488.816500 1.165051
489.038900 1.279565
489.261200 1.177830
489.483600 1.001125
489.706000 1.192371
489.928400 0.985897
490.150800 1.224700
490.373200 1.195613
490.595600 1.240612
490.818000 1.140506
491.040500 1.142900
491.263000 1.149180
491.485400 1.105772
491.707900 1.053324
491.930400 1.198770
492.152900 1.397131
492.375500 1.209148
492.598000 1.066659
492.820500 1.160965
493.043100 1.037310
493.265700 1.067479
493.488200 1.467977
493.710800 1.058258
493.933400 1.068095
494.156100 1.249868
494.378700 1.173303
494.601300 1.310154
494.824000 1.083105
495.046600 1.211032
495.269300 1.121566
495.492000 1.161487
495.714700 1.314284
495.937400 1.503885
496.160100 1.227740
496.382900 1.255482
496.605600 1.176061
496.828400 1.242109
497.051100 1.317637
497.273900 1.100605
497.496700 1.257020
497.719500 1.214146
497.942300 1.078603
498.165200 1.201260
498.388000 1.483233
498.610900 1.273529
498.833700 1.136513
499.056600 1.852223
499.279500 1.242863
499.502400 1.440078
499.725300 1.520316
499.948200 1.179149
500.171200 1.280660
500.394100 1.316029
500.617100 1.168014
500.840000 1.527191
501.063000 1.269288
501.286000 1.222727
501.509000 1.304705
501.732000 1.235770
501.955100 1.280317
502.178100 1.399506
502.401200 1.171574
502.624200 1.355516
502.847300 1.227204
503.070400 1.543797
503.293500 1.203929
503.516600 1.296546
503.739700 1.216074
503.962800 1.230950
504.186000 1.034934
504.409200 1.136471
504.632300 1.366257
504.855500 1.314419
505.078700 1.136727
505.301900 1.433303
505.525100 1.133884
505.748300 1.190169
505.971600 1.417697
506.194800 1.348104
506.418100 1.182075
506.641400 1.387682
506.864700 1.085265
507.088000 1.218870
507.311300 1.202839
507.534600 1.546374
507.757900 1.264920
507.981300 1.390173
508.204600 1.202856
508.428000 1.347040
508.651400 1.222820
508.874800 1.684689
509.098200 1.291609
509.321600 1.254236
509.545000 1.211327
509.768500 1.316350
509.991900 1.226876
510.215400 1.178511
510.438800 1.233006
510.662300 1.215806
510.885800 1.232994
511.109300 1.405109
511.332900 1.137091
511.556400 1.504047
511.779900 1.341239
512.003500 1.323022
512.227000 1.111296
512.450600 1.261815
512.674200 1.193543
512.897800 1.353412
513.121400 1.503129
513.345100 1.362852
513.568700 1.161863
513.792300 1.308861
514.016000 1.373389
514.239700 1.357128
514.463400 1.278441
514.687100 1.189820
514.910800 1.281977
515.134500 1.252875
515.358200 1.106795
515.581900 1.459753
515.805700 1.278358
516.029500 1.027788
516.253200 1.269370
516.477000 1.785569
516.700800 1.201339
516.924600 1.139337
517.148500 1.122423
517.372300 1.253836
517.596100 0.989818
517.820000 1.209658
518.043900 0.998242
518.267700 1.199870
518.491600 1.060540
518.715500 1.235208
518.939500 1.250207
519.163400 1.200956
519.387300 1.063751
519.611300 1.717601
519.835200 1.309160
520.059200 1.175689
520.283200 1.003278
520.507200 1.483147
520.731200 1.241094
520.955200 1.070035
521.179200 1.422003
521.403300 1.133829
521.627300 1.391722
521.851400 0.908294
522.075500 1.263987
522.299600 1.140410
522.523700 1.101552
522.747800 1.367548
522.971900 1.488946
523.196000 0.927612
523.420200 1.149722
523.644300 0.989168
523.868500 1.329736
524.092700 1.067656
524.316900 1.120195
524.541100 1.309885
524.765300 0.988842
524.989500 1.173923
525.213800 1.120009
525.438000 1.078031
525.662300 1.000952
525.886500 0.987492
526.110800 1.113967
526.335100 0.985983
526.559400 1.079745
526.783700 1.024947
527.008100 1.035117
527.232400 1.200810
527.456800 0.977284
527.681100 0.959888
527.905500 0.986764
528.129900 0.905134
528.354300 0.914598
528.578700 1.058728
528.803100 0.962568
529.027600 0.943746
529.252000 0.852160
529.476500 0.841786
529.700900 1.073842
529.925400 0.959044
530.149900 0.873268
530.374400 1.018818
530.598900 1.235205
530.823400 0.893638
531.048000 0.949384
531.272500 0.972114
531.497100 0.941185
531.721700 0.838953
531.946200 1.096688
532.170800 0.934033
532.395400 1.054908
532.620000 1.097997
532.844700 0.862483
533.069300 0.829140
533.294000 0.834579
533.518600 0.864211
533.743300 0.844772
533.968000 0.856321
534.192700 0.956350
534.417400 0.841437
534.642100 0.902423
534.866800 0.864096
535.091600 0.891007
535.316300 0.889585
535.541100 0.827961
535.765900 0.789192
535.990700 0.887816
536.215500 0.786452
536.440300 0.733927
536.665100 0.803112
536.889900 0.841823
537.114800 0.801700
537.339600 0.821551
537.564500 0.816957
537.789400 0.889660
538.014300 0.732658
538.239200 0.796757
538.464100 0.820385
538.689000 0.749913
538.913900 0.724909
539.138900 0.752258
539.363800 0.692044
539.588800 0.773161
539.813800 0.830793
540.038800 0.766149
540.263800 0.778132
540.488800 0.730957
540.713800 0.714356
540.938900 0.715181
541.163900 0.695482
541.389000 0.660449
541.614000 0.722931
541.839100 0.714429
542.064200 0.703868
542.289300 0.697778
542.514400 0.713588
542.739600 0.602816
542.964700 0.698898
543.189900 0.701078
543.415000 0.655212
543.640200 0.642477
543.865400 0.652950
544.090600 0.615168
544.315800 0.623887
544.541000 0.648540
544.766200 0.657132
544.991500 0.601442
545.216700 0.629919
545.442000 0.636113
545.667300 0.615854
545.892600 0.539473
546.117900 0.603338
546.343200 0.609349
546.568500 0.580511
546.793800 0.582081
547.019200 0.572105
547.244500 0.549749
547.469900 0.557128
547.695300 0.558149
547.920600 0.565336
548.146000 0.536137
548.371500 0.547125
548.596900 0.619893
548.822300 0.594730
549.047800 0.563440
549.273200 0.537558
549.498700 0.545703
549.724200 0.552688
549.949600 0.536055
550.175100 0.547099
550.400700 0.557798
550.626200 0.510359
550.851700 0.511563
551.077300 0.478689
551.302800 0.518982
551.528400 0.497693
551.754000 0.553470
551.979600 0.518586
552.205200 0.485028
552.430800 0.465408
552.656400 0.499968
552.882000 0.451800
553.107700 0.488468
553.333300 0.472546
553.559000 0.429045
553.784700 0.466191
554.010400 0.470927
554.236100 0.438903
554.461800 0.477446
554.687500 0.409204
554.913200 0.464245
555.139000 0.420893
555.364800 0.451835
555.590500 0.430562
555.816300 0.420732
556.042100 0.430563
556.267900 0.421098
556.493700 0.402483
556.719500 0.394481
556.945400 0.428665
557.171200 0.418878
557.397100 0.368179
557.623000 0.387465
557.848800 0.361351
558.074700 0.380535
558.300600 0.375551
558.526600 0.367088
558.752500 0.383304
558.978400 0.400813
559.204400 0.368381
559.430300 0.382545
559.656300 0.345199
559.882300 0.327385
560.108300 0.324326
560.334300 0.340965
560.560300 0.381908
560.786300 0.340594
561.012400 0.324119
561.238400 0.356513
561.464500 0.321286
561.690500 0.367124
561.916600 0.322123
562.142700 0.334960
562.368800 0.353650
562.594900 0.348646
562.821100 0.357228
563.047200 0.309847
563.273300 0.336009
563.499500 0.293942
563.725700 0.289788
563.951900 0.283513
564.178100 0.321629
564.404300 0.300685
564.630500 0.333473
564.856700 0.292692
565.082900 0.307643
565.309200 0.284727
565.535500 0.284183
565.761700 0.290596
565.988000 0.302331
566.214300 0.247978
566.440600 0.285275
566.666900 0.290020
566.893200 0.289335
567.119600 0.252180
567.345900 0.275410
567.572300 0.263358
567.798700 0.274601
568.025000 0.265398
568.251400 0.279926
568.477800 0.272418
568.704300 0.255812
568.930700 0.250620
569.157100 0.254674
569.383600 0.246307
569.610000 0.262029
569.836500 0.237959
570.063000 0.240752
570.289500 0.251813
570.516000 0.263450
570.742500 0.236737
570.969000 0.249080
571.195600 0.236695
571.422100 0.256987
571.648700 0.253096
571.875200 0.237053
572.101800 0.239886
572.328400 0.240203
572.555000 0.243476
572.781600 0.233390
573.008200 0.252558
573.234900 0.239693
573.461500 0.221945
573.688200 0.237438
573.914900 0.221749
574.141500 0.223544
574.368200 0.227230
574.594900 0.222192
574.821600 0.220259
575.048400 0.227013
575.275100 0.214789
575.501800 0.216836
575.728600 0.220674
575.955400 0.207973
576.182100 0.234045
576.408900 0.220219
576.635700 0.219029
576.862600 0.209511
577.089400 0.207552
577.316200 0.206941
577.543100 0.203369
577.769900 0.203942
577.996800 0.195875
578.223700 0.200410
578.450500 0.191841
578.677400 0.201576
578.904400 0.202100
579.131300 0.198927
579.358200 0.191033
579.585100 0.187468
579.812100 0.186820
580.039100 0.188706
580.266000 0.185203
580.493000 0.178991
580.720000 0.190826
580.947000 0.174719
581.174100 0.177153
581.401100 0.169194
581.628100 0.181505
581.855200 0.172964
582.082200 0.174342
582.309300 0.181535
582.536400 0.183059
582.763500 0.170481
582.990600 0.165628
583.217700 0.167145
583.444900 0.170343
583.672000 0.175975
583.899100 0.177895
584.126300 0.179352
584.353500 0.174869
584.580700 0.182106
584.807900 0.163947
585.035100 0.169154
585.262300 0.172621
585.489500 0.171696
585.716700 0.168130
585.944000 0.156735
586.171300 0.148794
586.398500 0.155180
586.625800 0.172592
586.853100 0.153552
587.080400 0.152758
587.307700 0.154580
587.535000 0.154483
587.762400 0.148863
587.989700 0.150269
588.217100 0.156417
588.444500 0.160955
588.671800 0.146028
588.899200 0.147564
589.126600 0.149912
589.354000 0.157159
589.581500 0.150786
589.808900 0.152859
590.036300 0.158965
590.263800 0.150234
590.491300 0.143911
590.718700 0.134981
590.946200 0.152301
591.173700 0.142585
591.401200 0.151429
591.628800 0.159746
591.856300 0.149411
592.083800 0.137747
592.311400 0.136609
592.538900 0.142824
592.766500 0.140964
592.994100 0.141722
593.221700 0.145858
593.449300 0.144276
593.676900 0.139127
593.904600 0.129901
594.132200 0.135221
594.359800 0.150727
594.587500 0.137211
594.815200 0.137834
595.042900 0.144157
595.270500 0.146745
595.498300 0.143318
595.726000 0.140715
595.953700 0.142963
596.181400 0.133194
596.409200 0.127651
596.636900 0.139304
596.864700 0.138574
597.092500 0.133868
597.320300 0.131336
597.548100 0.132452
597.775900 0.132996
598.003700 0.138451
598.231500 0.133786
598.459400 0.135635
598.687200 0.152523
598.915100 0.135474
599.143000 0.132790
599.370900 0.138099
599.598800 0.132990
599.826700 0.130523
600.054600 0.135080
600.282500 0.134504
600.510500 0.130396
600.738400 0.124804
600.966400 0.112845
601.194400 0.115961
601.422300 0.122100
601.650300 0.118957
601.878300 0.121989
602.106400 0.131119
602.334400 0.130129
602.562400 0.127110
602.790500 0.130852
603.018500 0.125142
603.246600 0.124855
603.474700 0.112204
603.702800 0.124524
603.930900 0.127561
604.159000 0.126947
604.387100 0.125837
604.615200 0.128492
604.843400 0.109226
605.071500 0.128319
605.299700 0.114905
605.527900 0.109462
605.756100 0.112866
605.984300 0.107489
606.212500 0.108746
606.440700 0.107702
606.668900 0.103005
606.897200 0.107146
607.125400 0.117922
607.353700 0.110861
607.581900 0.118445
607.810200 0.116821
608.038500 0.116754
608.266800 0.109344
608.495100 0.101992
608.723500 0.098452
608.951800 0.112695
609.180100 0.105511
609.408500 0.112577
609.636900 0.110431
609.865300 0.114717
610.093600 0.111570
610.322000 0.111425
610.550500 0.112869
610.778900 0.113925
611.007300 0.107893
611.235700 0.121619
611.464200 0.120100
611.692700 0.105517
611.921100 0.106363
612.149600 0.126152
612.378100 0.105832
612.606600 0.128093
612.835100 0.128532
613.063700 0.114397
613.292200 0.120900
613.520800 0.108846
613.749300 0.107164
613.977900 0.125855
614.206500 0.107280
614.435100 0.116096
614.663700 0.118440
614.892300 0.106772
615.120900 0.106891
615.349500 0.116602
615.578200 0.108672
615.806800 0.096170
616.035500 0.104699
616.264200 0.109898
616.492900 0.098852
616.721600 0.118353
616.950300 0.108254
617.179000 0.099033
617.407700 0.102789
617.636500 0.108849
617.865200 0.100834
618.094000 0.107548
618.322700 0.103998
618.551500 0.095800
618.780300 0.102574
619.009100 0.097108
619.237900 0.106165
619.466700 0.105293
619.695600 0.099715
619.924400 0.099081
620.153300 0.098458
620.382100 0.101851
620.611000 0.101650
620.839900 0.087894
621.068800 0.100454
621.297700 0.104356
621.526600 0.106602
621.755600 0.112729
621.984500 0.092633
622.213500 0.101869
622.442400 0.098412
622.671400 0.112497
622.900400 0.103914
623.129400 0.127894
623.358400 0.124163
623.587400 0.097463
623.816400 0.092383
624.045400 0.092839
624.274500 0.098569
624.503500 0.092460
624.732600 0.081962
624.961700 0.106579
625.190800 0.092775
625.419900 0.081258
625.649000 0.096449
625.878100 0.095937
626.107200 0.083123
626.336400 0.084501
626.565500 0.100111
626.794700 0.118602
627.023800 0.088996
627.253000 0.091594
627.482200 0.112601
627.711400 0.071465
627.940600 0.110991
628.169800 0.096631
628.399100 0.088784
628.628300 0.100557
628.857600 0.081971
629.086800 0.098572
629.316100 0.089256
629.545400 0.093779
629.774700 0.111253
630.004000 0.115282
630.233300 0.102755
630.462600 0.110917
630.692000 0.085794
630.921300 0.098188
631.150700 0.080120
631.380100 0.085588
631.609400 0.117372
631.838800 0.092684
632.068200 0.077451
632.297600 0.091278
632.527100 0.080658
632.756500 0.089823
632.985900 0.091189
633.215400 0.110961
633.444800 0.086971
633.674300 0.101256
633.903800 0.090634
634.133300 0.092575
634.362800 0.104152
634.592300 0.096604
634.821800 0.091664
635.051400 0.125731
635.280900 0.109595
635.510500 0.053146
635.740000 0.081260
635.969600 0.092782
636.199200 0.084111
636.428800 0.089928
636.658400 0.082054
636.888000 0.088900
637.117700 0.113794
637.347300 0.093797
637.577000 0.116155
637.806600 0.109776
638.036300 0.090811
638.266000 0.094940
638.495700 0.087442
638.725400 0.091159
638.955100 0.074656
639.184800 0.096643
639.414500 0.089070
639.644300 0.091017
639.874000 0.067384
640.103800 0.080457
640.333600 0.115524
640.563300 0.059065
640.793100 0.109160
641.022900 0.100511
641.252800 0.079329
641.482600 0.130757
641.712400 0.079983
641.942300 0.092298
642.172100 0.095638
642.402000 0.087676
642.631900 0.095365
642.861700 0.096925
643.091600 0.097513
643.321600 0.076456
643.551500 0.050911
643.781400 0.098310
644.011300 0.074500
644.241300 0.062899
644.471200 0.053806
644.701200 0.090315
644.931200 0.096595
645.161200 0.083350
645.391200 0.081572
645.621200 0.122953
645.851200 0.067245
646.081200 0.066571
646.311300 0.101655
646.541300 0.091068
646.771400 0.061532
647.001500 0.097795
647.231600 0.088732
647.461600 0.100198
647.691800 0.085678
647.921900 0.092399
648.152000 0.110191
648.382100 0.108376
648.612300 0.102510
648.842400 0.064592
649.072600 0.132825
649.302800 0.077388
649.532900 0.078066
649.763100 0.060391
649.993300 0.091876
650.223600 0.103399
650.453800 0.068671
650.684000 0.074113
650.914300 0.095720
651.144500 0.097317
651.374800 0.119464
651.605100 0.083008
651.835400 0.079752
652.065700 0.088696
652.296000 0.095140
652.526300 0.110738
652.756600 0.090594
652.987000 0.097851
653.217300 0.057481
653.447700 0.069063
653.678000 0.075702
653.908400 0.061428
654.138800 0.073217
654.369200 0.108256
654.599600 0.104396
654.830000 0.092867
655.060500 0.151821
655.290900 0.160832
655.521300 0.146786
655.751800 0.109754
655.982300 0.002910
656.212800 0.000974
656.443300 0.001458
656.673800 0.001232
656.904300 0.053043
657.134800 0.108867
657.365300 0.106139
657.595900 0.111232
657.826400 0.112208
658.057000 0.116251
658.287500 0.110513
658.518100 0.113972
658.748700 0.115788
658.979300 0.122255
659.209900 0.136841
659.440600 0.159088
659.671200 0.178689
659.901800 0.179174
660.132500 0.132120
660.363200 0.169121
660.593800 0.136318
660.824500 0.076403
661.055200 0.095721
661.285900 0.129666
661.516600 0.087132
661.747400 0.067148
661.978100 0.068248
662.208800 0.118137
662.439600 0.103043
662.670400 0.087347
662.901100 0.076996
663.131900 0.059902
663.362700 0.049375
663.593500 0.145561
663.824300 0.119271
664.055200 0.084077
664.286000 0.060768
664.516800 0.101101
664.747700 0.120340
664.978600 0.083038
665.209400 0.060766
665.440300 0.104650
665.671200 0.084355
665.902100 0.131736
666.133000 0.090715
666.364000 0.059625
666.594900 0.073963
666.825900 0.086998
667.056800 0.084225
667.287800 0.124677
667.518800 0.078397
667.749700 0.047891
667.980700 0.090892
668.211700 0.096035
668.442800 0.085856
668.673800 0.085395
668.904800 0.088926
669.135900 0.106170
669.366900 0.127629
669.598000 0.022573
669.829100 0.063121
670.060200 0.066821
670.291300 0.069030
670.522400 0.104453
670.753500 0.065274
670.984600 0.084347
671.215700 0.124030
671.446900 0.131611
671.678100 0.135274
671.909200 0.074539
672.140400 0.079004
672.371600 0.067805
672.602800 0.060411
672.834000 0.075061
673.065200 0.076068
673.296400 0.096491
673.527700 0.071523
673.758900 0.077524
673.990200 0.118619
674.221400 0.100650
674.452700 0.098876
674.684000 0.092632
674.915300 0.123194
675.146600 0.082312
675.377900 0.085779
675.609300 0.112866
675.840600 0.102347
676.071900 0.103213
676.303300 0.085403
676.534700 0.092503
676.766100 0.087490
676.997400 0.160672
677.228800 0.065030
677.460200 0.099438
677.691700 0.080707
677.923100 0.100776
678.154500 0.113839
678.386000 0.063116
678.617400 0.045319
678.848900 0.082858
679.080400 0.097000
679.311900 0.085905
679.543400 0.055643
679.774900 0.078887
680.006400 0.075475
680.237900 0.077791
680.469400 0.090539
680.701000 0.065748
680.932500 0.090239
681.164100 0.096133
681.395700 0.094962
681.627300 0.104670
681.858900 0.079390
682.090500 0.104267
682.322100 0.060346
682.553700 0.106215
682.785400 0.071777
683.017000 0.089328
683.248700 0.093565
683.480300 0.121085
683.712000 0.063146
683.943700 0.095386
684.175400 0.107842
684.407100 0.087537
684.638800 0.068725
684.870500 0.109015
685.102300 0.096058
685.334000 0.108839
685.565800 0.095846
685.797500 0.095453
686.029300 0.068493
686.261100 0.107726
686.492900 0.088801
686.724700 0.085519
686.956500 0.080666
687.188300 0.107349
687.420200 0.085050
687.652000 0.084983
687.883800 0.100339
688.115700 0.078415
688.347600 0.109478
688.579500 0.081033
688.811400 0.078672
689.043300 0.091534
689.275200 0.105904
689.507100 0.113204
689.739000 0.072528
689.971000 0.100060
690.202900 0.088617
690.434900 0.069160
690.666900 0.098302
690.898800 0.089773
691.130800 0.064113
691.362800 0.079141
691.594800 0.087541
691.826900 0.073962
692.058900 0.088702
692.290900 0.103616
692.523000 0.104951
692.755000 0.098156
692.987100 0.088777
693.219200 0.104919
693.451300 0.098046
693.683400 0.119390
693.915500 0.080275
694.147600 0.056869
694.379700 0.097841
694.611900 0.096443
694.844000 0.103179
695.076200 0.096107
695.308300 0.112464
695.540500 0.074215
695.772700 0.067740
696.004900 0.128121
696.237100 0.079259
696.469300 0.094401
696.701600 0.098989
696.933800 0.092192
697.166000 0.078193
697.398300 0.089966
697.630600 0.101730
697.862800 0.116260
698.095100 0.107323
698.327400 0.071475
698.559700 0.081689
698.792000 0.067368
699.024300 0.080492
699.256700 0.085110
699.489000 0.057409
699.721400 0.079622
699.953700 0.061024
700.186100 0.099930
700.418500 0.075125
700.650900 0.121282
700.883300 0.082472
701.115700 0.108582
701.348100 0.078520
701.580600 0.092157
701.813000 0.088054
702.045400 0.083832
702.277900 0.088880
702.510400 0.104370
702.742900 0.074297
702.975300 0.076220
703.207800 0.105336
703.440300 0.136917
703.672900 0.116168
703.905400 0.084669
704.137900 0.115184
704.370500 0.087052
704.603000 0.069552
704.835600 0.093211
705.068200 0.079540
705.300800 0.076983
705.533400 0.095711
705.766000 0.079488
705.998600 0.046956
706.231200 0.103244
706.463800 0.101737
706.696500 0.108509
706.929100 0.057988
707.161800 0.035826
707.394500 0.086789
707.627200 0.052837
707.859900 0.104958
708.092600 0.125443
708.325300 0.084046
708.558000 0.078316
708.790700 0.059799
709.023500 0.076221
709.256200 0.096926
709.489000 0.058506
709.721700 0.089755
709.954500 0.094032
710.187300 0.059274
710.420100 0.113105
710.652900 0.083328
710.885700 0.063567
711.118600 0.076454
711.351400 0.033768
711.584200 0.125182
711.817100 0.074048
712.050000 0.082543
712.282800 0.106296
712.515700 0.072511
712.748600 0.080644
712.981500 0.074154
713.214400 0.088381
713.447400 0.117122
713.680300 0.079139
713.913200 0.103387
714.146200 0.086451
714.379100 0.060074
714.612100 0.086826
714.845100 0.070444
715.078100 0.086204
715.311100 0.039982
715.544100 0.067129
715.777100 0.088379
716.010200 0.040740
716.243200 0.048038
716.476200 0.083705
716.709300 0.072307
716.942400 0.058656
717.175400 0.096512
717.408500 0.071146
717.641600 0.074126
717.874700 0.113610
718.107800 0.070857
718.341000 0.097695
718.574100 0.084349
718.807200 0.089861
719.040400 0.135499
719.273600 0.092985
719.506700 0.125544
719.739900 0.087586
719.973100 0.061758
720.206300 0.059133
720.439500 0.066170
720.672700 0.069843
720.906000 0.111424
721.139200 0.066197
721.372500 0.085510
721.605700 0.087274
721.839000 0.098030
722.072300 0.098599
722.305500 0.067002
722.538800 0.051515
722.772100 0.075209
723.005500 0.069970
723.238800 0.093154
723.472100 0.094474
723.705500 0.074311
723.938800 0.081267
724.172200 0.058659
724.405600 0.050536
724.638900 0.120055
724.872300 0.084810
725.105700 0.049573
725.339100 0.106332
725.572600 0.099834
725.806000 0.048586
726.039400 0.085768
726.272900 0.094534
726.506300 0.083114
726.739800 0.086524
726.973300 0.088512
727.206800 0.063646
727.440300 0.102337
727.673800 0.069644
727.907300 0.106016
728.140800 0.081559
728.374300 0.075797
728.607900 0.093658
728.841400 0.068682
729.075000 0.107312
729.308600 0.085364
729.542100 0.075898
729.775700 0.086872
730.009300 0.062765
730.242900 0.074068
730.476600 0.099272
730.710200 0.107767
730.943800 0.097993
731.177500 0.118074
731.411100 0.081625
731.644800 0.101156
731.878500 0.084983
732.112200 0.080061
732.345800 0.081281
732.579500 0.116307
732.813300 0.095097
733.047000 0.085119
733.280700 0.120272
733.514500 0.078747
733.748200 0.109082
733.982000 0.080926
734.215700 0.064174
734.449500 0.086007
734.683300 0.100898
734.917100 0.088438
735.150900 0.100567
735.384700 0.069677
735.618500 0.096637
735.852400 0.116907
736.086200 0.094359
736.320100 0.098192
736.553900 0.093066
736.787800 0.091030
737.021700 0.075061
737.255600 0.095812
737.489500 0.064717
737.723400 0.081690
737.957300 0.077562
738.191200 0.056387
738.425200 0.076857
738.659100 0.098273
738.893100 0.047594
739.127100 0.122231
739.361000 0.090661
739.595000 0.096018
739.829000 0.079359
740.063000 0.053959
740.297000 0.074627
740.531000 0.075723
740.765100 0.060725
740.999100 0.108224
741.233200 0.076141
741.467200 0.071967
741.701300 0.058090
741.935400 0.079280
742.169500 0.075741
742.403600 0.080526
742.637700 0.081559
742.871800 0.054047
743.105900 0.063281
743.340000 0.064342
743.574200 0.082377
743.808300 0.084223
744.042500 0.030226
744.276700 0.085792
744.510800 0.078402
744.745000 0.105183
744.979200 0.074219
745.213400 0.082658
745.447700 0.071102
745.681900 0.073095
745.916100 0.085350
746.150400 0.088769
746.384600 0.096290
746.618900 0.051554
746.853200 0.108986
747.087400 0.089168
747.321700 0.098627
747.556000 0.070567
747.790300 0.096220
748.024700 0.031846
748.259000 0.068381
748.493300 0.125225
748.727700 0.093509
748.962000 0.109745
749.196400 0.086543
749.430800 0.103287
749.665200 0.082903
749.899500 0.073897
750.133900 0.066414
750.368400 0.100380
750.602800 0.081776
750.837200 0.087064
751.071700 0.078968
751.306100 0.087485
751.540600 0.092963
751.775000 0.099763
752.009500 0.058932
752.244000 0.085210
752.478500 0.080143
752.713000 0.085590
752.947500 0.087987
753.182000 0.127737
753.416600 0.060790
753.651100 0.090834
753.885600 0.102403
754.120200 0.099477
754.354800 0.099369
754.589400 0.069172
754.823900 0.054373
755.058500 0.112513
755.293100 0.078704
755.527800 0.070213
755.762400 0.065519
755.997000 0.088362
756.231700 0.116980
756.466300 0.082526
756.701000 0.072475
756.935600 0.118631
757.170300 0.083372
757.405000 0.105843
757.639700 0.081062
757.874400 0.084054
758.109100 0.092605
758.343800 0.106919
758.578600 0.097456
758.813300 0.115027
759.048100 0.087114
759.282800 0.079051
759.517600 0.074422
759.752400 0.071728
759.987200 0.094571
760.222000 0.095918
760.456800 0.080356
760.691600 0.084797
760.926400 0.087897
761.161300 0.087284
761.396100 0.086553
761.631000 0.122899
761.865800 0.150774
762.100700 0.099044
762.335600 0.097961
762.570500 0.089581
762.805400 0.071572
763.040300 0.101985
763.275200 0.096774
763.510100 0.075985
763.745000 0.099809
763.980000 0.106143
764.214900 0.096432
764.449900 0.104856
764.684900 0.099694
764.919800 0.086837
765.154800 0.063207
765.389800 0.086383
765.624800 0.105494
765.859900 0.052807
766.094900 0.075959
766.329900 0.064873
766.565000 0.091071
766.800000 0.063381
767.035100 0.088069
767.270100 0.092827
767.505200 0.068339
767.740300 0.095925
767.975400 0.071884
768.210500 0.113397
768.445600 0.072209
768.680800 0.103113
768.915900 0.128642
769.151000 0.112661
769.386200 0.075196
769.621400 0.051349
769.856500 0.105243
770.091700 0.100207
770.326900 0.048468
770.562100 0.084616
770.797300 0.062602
771.032500 0.064253
771.267700 0.065601
771.503000 0.076382
771.738200 0.093096
771.973500 0.067779
772.208700 0.081290
772.444000 0.115912
772.679300 0.062325
772.914600 0.094424
773.149900 0.079470
773.385200 0.076272
773.620500 0.088615
773.855800 0.090946
774.091100 0.070848
774.326500 0.077427
774.561800 0.116654
774.797200 0.127778
775.032600 0.169725
775.267900 0.034973
775.503300 0.046972
775.738700 0.098040
775.974100 0.080531
776.209500 0.095988
776.445000 0.109952
776.680400 0.077639
776.915800 0.092662
777.151300 0.081132
777.386800 0.095088
777.622200 0.083410
777.857700 0.064560
778.093200 0.072236
778.328700 0.115567
778.564200 0.074936
778.799700 0.085039
779.035200 0.096070
779.270700 0.088824
779.506300 0.077693
779.741800 0.070947
779.977400 0.065769
780.213000 0.086204
780.448500 0.075796
780.684100 0.132756
780.919700 0.089627
781.155300 0.082287
781.390900 0.127401
781.626500 0.076535
781.862200 0.119595
782.097800 0.104997
782.333500 0.091993
782.569100 0.102031
782.804800 0.053287
783.040500 0.068356
783.276100 0.043679
783.511800 0.085360
783.747500 0.059154
783.983200 0.054363
784.219000 0.110351
784.454700 0.051298
784.690400 0.101785
784.926200 0.094795
785.161900 0.112473
785.397700 0.093278
785.633500 0.054910
785.869200 0.100275
786.105000 0.094722
786.340800 0.125197
786.576600 0.065891
786.812400 0.086731
787.048300 0.070924
787.284100 0.089484
787.519900 0.079911
787.755800 0.056817
787.991700 0.097745
788.227500 0.067724
788.463400 0.090256
788.699300 0.073917
788.935200 0.088701
789.171100 0.083443
789.407000 0.103930
789.642900 0.112048
789.878900 0.095344
790.114800 0.093546
790.350700 0.039962
790.586700 0.097182
790.822700 0.094177
791.058600 0.079200
791.294600 0.112673
791.530600 0.088351
791.766600 0.126256
792.002600 0.085430
792.238700 0.079083
792.474700 0.078001
792.710700 0.122335
792.946800 0.081219
793.182800 0.082227
793.418900 0.079569
793.655000 0.098261
793.891000 0.141959
794.127100 0.109653
794.363200 0.107608
794.599300 0.077856
794.835500 0.051626
795.071600 0.119129
795.307700 0.071846
795.543900 0.090615
795.780000 0.074335
796.016200 0.035921
796.252300 0.084762
796.488500 0.086131
796.724700 0.091640
796.960900 0.063363
797.197100 0.042879
797.433300 0.079040
797.669500 0.032645
797.905800 0.070647
798.142000 0.076688
798.378300 0.078059
798.614500 0.069664
798.850800 0.128999
799.087100 0.119521
799.323300 0.063177
799.559600 0.052810
799.795900 0.076797
800.032200 0.107258
800.268600 0.072622
800.504900 0.060913
800.741200 0.095511
800.977600 0.086233
801.213900 0.172033
801.450300 0.123782
801.686700 0.092934
801.923000 0.082382
802.159400 0.133082
802.395800 0.094087
802.632200 0.092004
802.868600 0.038423
803.105100 0.142534
803.341500 0.073681
803.577900 0.129727
803.814400 0.078157
804.050800 0.100370
804.287300 0.071727
804.523800 0.123455
804.760300 0.104801
804.996800 0.014311
805.233300 0.084864
805.469800 0.071192
805.706300 0.048810
805.942800 0.072364
806.179400 0.068388
806.415900 0.056999
806.652500 0.105719
806.889000 0.095553
807.125600 0.130785
807.362200 0.075132
807.598800 0.106898
807.835400 0.061378
808.072000 0.082189
808.308600 0.089139
808.545200 0.096048
808.781800 0.082762
809.018500 0.103296
809.255100 0.076717
809.491800 0.081310
809.728400 0.004801
809.965100 0.068196
810.201800 0.096261
810.438500 0.074211
810.675200 0.112531
810.911900 0.072421
811.148600 0.138433
811.385300 0.051509
811.622100 0.098273
811.858800 0.040028
812.095600 0.082708
812.332300 0.166659
812.569100 0.049247
812.805900 0.083923
813.042700 0.089232
813.279500 0.088750
813.516300 0.042922
813.753100 0.054985
813.989900 0.047227
814.226700 0.111212
814.463600 0.074534
814.700400 0.129955
814.937300 0.041293
815.174200 0.132259
815.411000 0.064436
815.647900 0.045521
815.884800 0.070990
816.121700 0.036459
816.358600 0.044135
816.595500 0.091614
816.832400 0.041215
817.069400 0.054597
817.306300 0.154451
817.543300 0.041449
817.780200 0.053410
818.017200 0.109073
818.254200 0.101789
818.491200 0.068434
818.728200 0.154545
818.965200 0.101177
819.202200 0.017859
819.439200 0.087161
819.676200 0.024743
819.913300 0.099588
820.150300 0.116882
820.387400 0.108380
820.624400 0.110958
820.861500 0.078999
821.098600 0.156263
821.335700 0.112820
821.572700 0.073253
821.809900 0.121513
822.047000 0.074878
822.284100 0.058698
822.521200 0.142848
822.758400 0.078208
822.995500 0.095045
823.232700 0.164605
823.469800 0.094812
823.707000 0.085686
823.944200 0.110160
824.181400 0.125126
824.418600 0.040995
824.655800 -0.007379
824.893000 0.088007
825.130200 0.057400
825.367500 0.064395
825.604700 0.107177
825.841900 0.021594
826.079200 0.143102
826.316500 0.080914
826.553700 0.074331
826.791000 0.111613
827.028300 0.147091
827.265600 0.053836
827.502900 0.076370
827.740200 0.065702
827.977600 0.094829
828.214900 0.110828
828.452200 0.057698
828.689600 0.155536
828.927000 0.110680
829.164300 0.081276
829.401700 0.036565
829.639100 0.051087
829.876500 0.060268
830.113900 0.091600
830.351300 0.151493
830.588700 0.039021
830.826100 0.033429
831.063600 0.092325
831.301000 0.090294
831.538500 0.096697
831.775900 0.064052
832.013400 -0.002282
832.250900 0.209292
832.488400 0.128103
832.725900 0.128067
832.963400 0.106636
833.200900 0.167873
833.438400 0.022127
833.675900 0.181836
833.913500 0.108632
834.151000 0.043570
834.388600 0.160251
834.626100 -0.000842
834.863700 0.066136
835.101300 0.127288
835.338900 0.073350
835.576500 0.118197
835.814100 0.034300
836.051700 0.078560
836.289300 0.139962
836.526900 0.046646
836.764600 0.245020
837.002200 0.193979
837.239900 0.159606
837.477500 0.059659
837.715200 0.102462
837.952900 0.030049
838.190600 0.188698
838.428300 0.019039
838.666000 0.098612
838.903700 0.147213
839.141400 0.179847
839.379100 -0.018180
839.616900 -0.010614
839.854600 0.089807
840.092400 0.127864
840.330200 0.141734
840.567900 0.074899
840.805700 0.117552
841.043500 0.304138
841.281300 0.006891
841.519100 0.234750
841.756900 0.105946
841.994700 0.021108
842.232600 0.205995
842.470400 0.222172
842.708200 0.008740
842.946100 0.062586
843.184000 0.020772
843.421800 0.105349
843.659700 0.143512
843.897600 -0.008535
844.135500 0.100132
844.373400 0.190773
844.611300 0.114080
844.849200 0.133259
845.087200 0.119852
845.325100 0.269103
845.563100 0.168776
845.801000 0.180600
846.039000 0.055321
846.277000 0.013645
846.514900 0.066674
846.752900 0.059181
846.990900 0.014352
847.228900 -0.006674
847.466900 0.351703
847.705000 0.067001
847.943000 -0.000982
848.181000 0.287065
848.419100 0.070270
848.657100 0.144993
848.895200 0.141281
849.133300 0.171330
849.371300 0.111216
849.609400 0.096974
849.847500 0.191345
850.085600 0.164254
850.323700 0.299731
850.561900 0.053163
850.800000 0.135309
851.038100 0.075203
851.276300 0.156717
851.514400 -0.099299
851.752600 0.229159
851.990800 0.050735
852.228900 0.026011
852.467100 0.066151
852.705300 0.023192
852.943500 0.047911
853.181700 0.102022
853.420000 0.104960
853.658200 0.034402
853.896400 0.124284
854.134700 0.014679
854.372900 0.084995
854.611200 0.105507
854.849500 0.115708
855.087700 0.056486
855.326000 0.204728
855.564300 0.061526
855.802600 0.137816
856.040900 0.109222
856.279200 0.130046
856.517600 0.148290
856.755900 0.152351
856.994200 0.101171
857.232600 0.068563
857.471000 0.020886
857.709300 -0.002613
857.947700 0.070822
858.186100 0.149542
858.424500 0.062110
858.662900 0.179391
858.901300 0.043373
859.139700 0.129104
859.378100 0.049367
859.616600 0.063156
859.855000 0.080516
860.093500 0.143845
860.331900 -0.007334
860.570400 0.045334
860.808900 0.116767
861.047300 0.158560
861.285800 0.168687
861.524300 0.181346
861.762800 0.159319
862.001300 0.063202
862.239900 0.058181
862.478400 0.109304
862.716900 0.062336
862.955500 0.110468
863.194000 -0.032768
863.432600 0.178071
863.671200 0.024306
863.909800 0.035971
864.148300 0.088294
864.386900 0.021067
864.625500 0.014461
864.864200 0.105952
865.102800 -0.011211
865.341400 0.179474
865.580000 0.175383
865.818700 0.211445
866.057300 0.214043
866.296000 0.115733
866.534700 -0.015382
866.773300 0.032379
867.012000 0.255742
867.250700 0.181118
867.489400 0.075802
867.728100 0.151806
867.966900 0.111941
868.205600 0.017965
868.444300 0.069736
868.683100 -0.028511
868.921800 0.052547
869.160600 0.003863
869.399300 0.123159
869.638100 0.087445
869.876900 0.113293
870.115700 0.094079
870.354500 0.158737
870.593300 0.037125
870.832100 -0.027694
871.070900 0.068614
871.309700 0.091720
871.548600 0.146180
871.787400 0.018502
872.026300 0.246843
872.265100 0.007241
872.504000 0.096487
872.742900 0.162860
872.981800 -0.085399
873.220700 0.110178
873.459600 0.302828
873.698500 0.122405
873.937400 0.084815
874.176300 0.112578
874.415300 -0.000758
874.654200 -0.010053
874.893200 0.336686
875.132100 -0.038437
875.371100 0.039652
875.610100 0.147096
875.849100 0.086412
876.088000 0.211243
876.327000 0.072148
876.566100 0.101359
876.805100 0.074569
877.044100 -0.035264
877.283100 0.104580
877.522200 -0.034041
877.761200 -0.074503
878.000300 0.267266
878.239300 0.010887
878.478400 0.046725
878.717500 0.110977
878.956600 0.068411
879.195700 0.154888
879.434800 0.045175
879.673900 0.040411
879.913000 0.121923
880.152100 0.035556
880.391300 0.167297
880.630400 0.193423
880.869600 0.020560
881.108700 0.029654
881.347900 0.033925
881.587100 0.033649
881.826200 0.102232
882.065400 0.194838
882.304600 0.080754
882.543800 0.054409
882.783100 0.159556
883.022300 0.147747
883.261500 0.006885
883.500700 0.099870
883.740000 0.071302
883.979200 0.338004
884.218500 0.131572
884.457800 0.059772
884.697100 0.017232
884.936300 0.108835
885.175600 0.126829
885.414900 0.145973
885.654200 0.072098
885.893600 0.074070
886.132900 0.113997
886.372200 0.202695
886.611600 0.082566
886.850900 0.055811
887.090300 0.093728
887.329600 0.120095
887.569000 0.121932
887.808400 0.101962
888.047800 -0.040865
888.287200 0.078019
888.526600 0.052301
888.766000 -0.072046
889.005400 0.184859
889.244800 0.000000
889.484300 0.072778
889.723700 0.162915
889.963200 -0.048379
890.202600 0.305854
890.442100 -0.029514
890.681600 0.086015
890.921100 0.002842
891.160600 0.026505
891.400100 0.339746
891.639600 0.110664
891.879100 0.098661
892.118600 0.160925
892.358100 -0.029399
892.597700 0.144261
892.837200 0.113628
893.076800 -0.017329
893.316300 0.272227
893.555900 0.136388
893.795500 0.051573
894.035100 0.036191
894.274700 0.210969
894.514300 -0.047884
894.753900 0.003458
894.993500 0.021632
895.233100 0.182729
895.472700 -0.037175
895.712400 0.318267
895.952000 0.001741
896.191700 -0.039440
896.431400 -0.008401
896.671000 0.023880
896.910700 0.064734
897.150400 0.244146
897.390100 0.107637
897.629800 0.042813
897.869500 -0.043094
898.109200 0.150018
898.348900 0.022815
898.588700 0.120348
898.828400 0.131594
899.068200 0.151617
899.307900 0.218739
899.547700 0.119574
899.787500 0.151738
900.027200 -0.143153
900.267000 0.153494
900.506800 0.088009
900.746600 0.259535
900.986400 0.110566
901.226300 0.050045
901.466100 -0.021742
901.705900 0.158434
901.945800 0.177157
902.185600 0.108197
902.425500 -0.069360
902.665400 0.169641
902.905200 0.031452
903.145100 0.025514
903.385000 0.046773
903.624900 0.119879
903.864800 0.025536
904.104700 0.067840
904.344600 0.056358
904.584600 0.092148
904.824500 -0.006226
905.064400 0.190105
905.304400 -0.007207
905.544400 0.002507
905.784300 0.263847
906.024300 0.048472
906.264300 0.101906
906.504300 0.187958
906.744300 0.169937
906.984300 0.031498
907.224300 0.072442
907.464300 0.075223
907.704300 0.301426
907.944400 0.108192
908.184400 -0.085899
908.424500 0.294134
908.664500 0.017624
908.904600 -0.055923
909.144700 0.212949
909.384700 0.344560
909.624800 0.128314
909.864900 -0.015364
910.105000 0.246506
910.345200 -0.138943
910.585300 -0.007782
910.825400 0.249358
911.065500 0.061482
911.305700 -0.025985
911.545800 0.020583
911.786000 0.077560
912.026200 0.142940
912.266300 0.027529
912.506500 0.073412
912.746700 0.094317
912.986900 -0.057516
913.227100 0.052645
913.467300 -0.018943
913.707500 -0.095308
913.947800 0.161750
914.188000 0.141781
914.428300 0.121951
914.668500 0.115748
914.908800 -0.083346
915.149000 0.087582
915.389300 0.075266
915.629600 0.122323
915.869900 0.112584
916.110200 0.063609
916.350500 0.038997
916.590800 0.022187
916.831100 0.096910
917.071400 0.062869
917.311800 -0.028383
917.552100 0.059936
917.792500 0.260557
918.032800 -0.030642
918.273200 0.200196
918.513600 0.265038
918.753900 0.224354
918.994300 0.017363
919.234700 0.189847
919.475100 0.149968
919.715500 0.055344
919.956000 0.197469
920.196400 -0.103678
920.436800 0.030975
920.677300 0.056892
920.917700 -0.096759
921.158200 0.163055
921.398600 0.301381
921.639100 0.421488
921.879600 0.010586
922.120100 0.018164
922.360600 0.093562
922.601100 -0.050123
922.841600 -0.023631
923.082100 0.034241
923.322600 1.045832
923.563100 0.003267
923.803700 0.207277
924.044200 0.048771
924.284800 0.457200
924.525400 0.031811
924.765900 0.048212
925.006500 0.128178
925.247100 -0.056353
925.487700 -0.034300
925.728300 0.946143
925.968900 0.050747
926.209500 0.380868
926.450100 0.223509
926.690800 0.182323
926.931400 0.254084
927.172000 0.019830
927.412700 0.039703
927.653300 0.272321
927.894000 1.399470
928.134700 0.124234
928.375400 -0.110883
928.616100 0.049395
928.856800 0.318425
929.097500 0.097139
929.338200 -0.098154
929.578900 0.112060
929.819600 -0.006926
930.060400 0.035230
930.301100 0.134284
930.541900 0.339948
930.782600 -0.056355
931.023400 -0.179759
931.264200 0.217656
931.504900 -0.025225
931.745700 0.286404
931.986500 0.262273
932.227300 3.418633
932.468100 0.345899
932.708900 -0.150721
932.949800 0.479644
933.190600 0.380913
933.431400 0.055056
933.672300 -0.029702
933.913100 0.101339
934.154000 0.221081
934.394900 0.261158
934.635800 -0.041063
934.876600 0.039400
935.117500 0.139018
935.358400 0.109241
935.599300 0.342600
935.840300 -0.021325
936.081200 0.146091
936.322100 -0.130107
936.563000 0.188588
936.804000 0.235870
937.044900 -0.375503
937.285900 -0.017299
937.526900 0.237697
937.767800 0.596728
938.008800 -0.022201
938.249800 0.080184
938.490800 0.254633
938.731800 0.709211
938.972800 0.376981
939.213800 0.282449
939.454900 -0.009656
939.695900 0.505258
939.936900 2.103804
940.178000 0.307445
940.419000 -0.199135
940.660100 0.332078
940.901200 0.184804
941.142200 -0.426630
941.383300 -0.132829
941.624400 0.656744
941.865500 0.294656
942.106600 0.169387
942.347700 -0.203741
942.588900 0.569806
942.830000 -0.194316
943.071100 -0.101944
943.312300 0.178150
943.553400 -0.097681
943.794600 0.444148
944.035700 -0.005252
944.276900 -0.189541
944.518100 0.090332
944.759300 0.022796
945.000500 2.827369
945.241700 0.050103
945.482900 0.150554
945.724100 0.371843
945.965300 3.055378
946.206600 0.245665
946.447800 -0.178960
946.689100 0.055902
946.930300 -0.725644
947.171600 -0.076440
947.412800 -0.014957
947.654100 0.104869
947.895400 0.277781
948.136700 0.779636
948.378000 2.902547
948.619300 0.682731
948.860600 0.261398
949.101900 -0.147952
949.343300 0.008823
949.584600 -0.027433
949.825900 0.018469
950.067300 0.465595
950.308600 0.000000
950.550000 -0.022594
950.791400 -0.445522
951.032700 -0.331381
951.274100 0.012918
951.515500 0.729874
951.756900 0.540790
951.998300 0.046637
952.239800 0.004633
952.481200 -0.196723
952.722600 0.009749
952.964000 0.238167
953.205500 -0.245819
953.446900 0.432486
953.688400 -0.076534
953.929900 0.309570
954.171300 -1.427530
954.412800 -0.067394
954.654300 -0.010699
954.895800 -0.297431
955.137300 0.087290
955.378800 0.018162
955.620300 0.112623
955.861800 0.113469
956.103400 -0.112799
956.344900 -0.017494
956.586500 0.191769
956.828000 0.124483
957.069600 -0.233959
957.311100 -0.488816
957.552700 -0.073720
957.794300 0.231317
958.035900 -0.246254
958.277500 -0.426131
958.519100 0.692837
958.760700 -0.105148
959.002300 2.632457
959.243900 0.426486
959.485600 2.918555
959.727200 0.019852
959.968800 -0.175217
960.210500 -0.033811
960.452200 0.177032
960.693800 0.368850
960.935500 -2.008600
961.177200 0.050548
961.418900 -0.302956
961.660600 -0.167208
961.902300 0.296119
962.144000 -0.261982
962.385700 2.791691
962.627400 0.149136
962.869200 2.719331
963.110900 0.009134
963.352700 2.840106
963.594400 0.749990
963.836200 0.424378
964.077900 -0.094723
964.319700 0.066999
964.561500 0.317850
964.803300 0.370611
965.045100 0.105227
965.286900 -0.184200
965.528700 0.019263
965.770500 0.166869
966.012300 -0.219906
966.254200 -0.110312
966.496000 -0.340190
966.737900 0.168206
966.979700 0.108724
967.221600 2.833784
967.463400 0.873520
967.705300 0.792453
967.947200 -0.269629
968.189100 -0.191023
968.431000 0.011991
968.672900 0.517214
968.914800 -0.017080
969.156700 2.745075
969.398700 -0.259113
969.640600 -0.304716
969.882500 0.152136
970.124500 -0.463432
970.366400 0.567050
970.608400 -0.050803
970.850400 -0.143581
971.092300 2.890421
971.334300 1.081854
971.576300 2.598791
971.818300 1.317857
972.060300 0.326561
972.302300 3.275081
972.544300 0.527591
972.786400 0.689321
973.028400 0.230935
973.270400 0.505258
973.512500 0.399379
973.754500 3.218010
973.996600 0.167388
974.238700 0.388180
974.480700 -0.024824
974.722800 -0.212740
974.964900 -0.377302
975.207000 0.302089
975.449100 -0.021379
975.691200 0.080743
975.933300 0.945213
976.175500 -3.310268
976.417600 0.527406
976.659700 0.097359
976.901900 -0.199290
977.144000 0.091508
977.386200 2.745075
977.628300 0.367335
977.870500 0.144492
978.112700 -0.076997
978.354900 2.775974
978.597100 0.400703
978.839300 1.298341
979.081500 1.337126
979.323700 -3.282396
979.565900 -0.399632
979.808200 0.528893
980.050400 0.187722
980.292600 -0.092459
980.534900 0.260021
980.777100 0.396088
981.019400 -0.340955
981.261700 3.201124
981.504000 0.219521
981.746200 -1.121044
981.988500 3.013259
982.230800 -0.139968
982.473100 0.408664
982.715500 0.170735
982.957800 -0.294431
983.200100 2.990339
983.442400 -0.676469
983.684800 0.116294
983.927100 0.291631
984.169500 2.985426
984.411800 0.281370
984.654200 0.024026
984.896600 0.204264
985.139000 -1.293298
985.381400 0.678941
985.623800 -0.126579
985.866200 0.172537
986.108600 -2.269513
986.351000 0.104479
986.593400 2.820201
986.835800 0.087324
987.078300 -0.037186
987.320700 2.940516
987.563200 -0.312134
987.805600 -0.686086
988.048100 3.189209
988.290600 -0.407780
988.533100 -2.966142
988.775600 2.980458
989.018000 0.395946
989.260500 -0.021867
989.503100 -3.101059
989.745600 -1.129001
989.988100 0.000000
990.230600 3.097604
990.473200 2.935507
990.715700 -0.000240
990.958200 2.523746
991.200800 0.081374
991.443400 0.000000
991.685900 -0.117252
991.928500 -3.136086
992.171100 -0.776641
992.413700 -0.142069
992.656300 0.123047
992.898900 2.866287
993.141500 3.078457
993.384100 3.021603
993.626700 0.733936
993.869400 2.760422
994.112000 -0.380211
994.354700 0.003278
994.597300 3.030195
994.840000 -2.736397
995.082600 -0.203040
995.325300 2.269513
995.568000 -0.257907
995.810700 -0.555942
996.053400 0.113471
996.296100 2.827369
996.538800 3.042969
996.781500 0.773201
997.024200 -0.749433
997.267000 2.791691
997.509700 -0.145360
997.752400 2.768638
997.995200 -0.196330
998.237900 0.432055
998.480700 -0.011582
998.723500 -2.158362
998.966200 2.956168
999.209000 -2.217484
999.451800 3.003891
999.694600 0.627775
999.937400 -0.303113
1000.180200 -0.032185
1000.423000 0.831890
1000.665900 0.442566
1000.908700 2.396199
1001.151500 2.727541
1001.394400 0.146284
1001.637200 0.613074
1001.880100 0.778151
1002.123000 -0.084173
1002.365800 -0.366259
1002.608700 -0.075034
1002.851600 0.515344
1003.094500 -0.145365
1003.337400 -0.758407
1003.580300 -2.701568
1003.823200 0.099003
1004.066100 0.067439
1004.309100 -0.436308
1004.552000 3.008600
1004.794900 0.272385
1005.037900 3.129368
1005.280800 -0.257153
1005.523800 0.179663
1005.766700 -0.182238
1006.009700 3.047275
1006.252700 -2.975891
1006.495700 2.812913
1006.738700 -2.719331
1006.981700 0.020809
1007.224700 -0.083184
1007.467700 -0.633864
1007.710700 1.355388
1007.953800 0.713159
1008.196800 2.736397
1008.439800 0.977862
1008.682900 2.691965
1008.925900 0.498814
1009.169000 -0.137374
1009.412100 0.000000
1009.655100 -0.986157
1009.898200 0.254528
1010.141300 0.274607
1010.384400 0.311269
1010.627500 0.280715
1010.870600 0.035877
1011.113700 -0.014700
1011.356800 -0.528687
1011.600000 1.591065
1011.843100 -0.149446
1012.086300 -2.269513
1012.329400 2.907411
1012.572600 -3.003891
1012.815700 -0.228934
1013.058900 0.000000
1013.302100 -0.074928
1013.545200 2.960946
1013.788400 0.509436
1014.031600 -2.890421
1014.274800 3.075182
1014.518000 3.161967
1014.761300 3.177536
1015.004500 -1.591065
1015.247700 0.276816
1015.490900 0.000000
1015.734200 0.806831
1015.977400 -0.679118
1016.220700 -2.736397
1016.464000 -0.025432
1016.707200 -1.110698
1016.950500 -0.374419
1017.193800 -0.383864
1017.437100 -0.328128
1017.680400 2.985426
1017.923700 0.177240
1018.167000 1.976452
1018.410300 2.643453
1018.653600 -0.165005
1018.896900 3.021603
1019.140300 3.030195
1019.383600 0.572853
1019.627000 0.400623
1019.870300 2.465383
1020.113700 0.447158
1020.357100 2.575188
1020.600400 -0.184922
1020.843800 3.090258
1021.087200 0.534313
1021.330600 -3.021603
1021.574000 3.070776
1021.817400 0.000000
1022.060800 0.000000
1022.304200 -1.908485
1022.547700 2.902003
1022.791100 -0.188207
1023.034500 0.093582
