# Wavelength	Absorbance
197.780200 0.954243
197.984200 2.907949
198.188200 3.093772
198.392200 2.682145
198.596300 0.570019
198.800300 -0.261720
199.004400 -0.250826
199.208500 2.866287
199.412600 0.072551
199.616800 2.768638
199.820900 -0.004439
200.025100 0.512459
200.229200 -0.202625
200.433400 1.209260
200.637600 -0.448328
200.841800 2.902003
201.046100 3.008600
201.250300 0.539558
201.454600 0.449305
201.658900 3.051153
201.863100 0.670474
202.067400 2.760422
202.271800 0.322184
202.476100 -0.117994
202.680500 0.723566
202.884800 -0.149876
203.089200 0.311995
203.293600 -0.110444
203.498000 0.589001
203.702400 -0.349282
203.906900 -0.144762
204.111300 0.000000
204.315800 -0.311853
204.520300 0.340324
204.724800 2.587711
204.929300 2.396199
205.133800 0.088162
205.338400 2.820201
205.543000 0.156913
205.747500 2.682145
205.952100 -0.280927
206.156700 3.034628
206.361400 -2.967548
206.566000 -0.313539
206.770600 0.765082
206.975300 -0.445106
207.180000 0.845098
207.384700 -0.241593
207.589400 0.000000
207.794100 0.252120
207.998900 2.622214
208.203600 3.152288
208.408400 0.102167
208.613200 2.820201
208.818000 -0.654905
209.022800 2.414973
209.227600 1.196952
209.432500 -0.007451
209.637300 0.197722
209.842200 2.294466
210.047100 -0.082163
210.252000 -1.011754
210.456900 0.807606
210.661800 3.055378
210.866800 3.104828
211.071800 3.104487
211.276700 -0.179833
211.481700 2.736397
211.686700 -0.168946
211.891800 2.480007
212.096800 3.336260
212.301800 2.890421
212.506900 0.543265
212.712000 2.965672
212.917100 0.229830
213.122200 1.243038
213.327300 0.896610
213.532500 0.000000
213.737600 2.985426
213.942800 -1.199246
214.148000 -0.505910
214.353200 0.000000
214.558400 2.956168
214.763600 0.121339
214.968900 2.896526
215.174100 3.104487
215.379400 -3.005609
215.584700 2.846955
215.790000 0.466508
215.995300 2.820201
216.200700 1.006839
216.406000 -0.121250
216.611400 2.587711
216.816800 2.833784
217.022200 -0.221433
217.227600 3.086360
217.433000 0.035499
217.638400 0.644154
217.843900 2.700704
218.049400 0.000000
218.254800 0.628677
218.460300 3.008600
218.665900 3.186674
218.871400 3.234517
219.076900 2.990339
219.282500 2.960946
219.488100 0.343124
219.693600 2.783904
219.899200 -0.047910
220.104900 0.226075
220.310500 2.158362
220.516100 -2.555094
220.721800 0.225753
220.927500 3.071145
221.133200 2.902003
221.338900 2.902003
221.544600 0.091080
221.750300 3.183555
221.956100 0.327628
222.161800 -0.554195
222.367600 0.266880
222.573400 -0.225192
222.779200 -3.216430
222.985000 0.000000
223.190900 0.371047
223.396700 -0.082974
223.602600 -0.335091
223.808500 0.508510
224.014400 0.324782
224.220300 0.611225
224.426200 0.491445
224.632200 0.147758
224.838100 2.890421
225.044100 0.006809
225.250100 0.184740
225.456100 0.549409
225.662100 2.632457
225.868100 2.127105
226.074200 -0.462712
226.280200 -2.996512
226.486300 0.821649
226.692400 0.000000
226.898500 3.101403
227.104600 2.294466
227.310700 0.407784
227.516900 2.833784
227.723000 2.089905
227.929200 0.887365
228.135400 0.206172
228.341600 2.622214
228.547800 0.140679
228.754100 3.003891
228.960300 2.245513
229.166600 0.000000
229.372900 -0.429111
229.579100 2.683047
229.785500 2.791691
229.991800 0.845098
230.198100 -0.198669
230.404500 -1.023431
230.610800 0.776004
230.817200 0.000000
231.023600 2.890421
231.230000 2.683047
231.436400 3.152288
231.642900 0.315381
231.849300 2.791691
232.055800 0.385351
232.262300 3.280123
232.468800 1.959041
232.675300 -0.595755
232.881800 2.599883
233.088400 0.098671
233.294900 -0.436991
233.501500 -0.285518
233.708100 -2.501059
233.914700 1.388744
234.121300 0.000000
234.327900 2.776701
234.534600 1.058896
234.741300 3.097604
234.947900 2.736397
235.154600 0.550680
235.361300 0.418393
235.568000 -0.042816
235.774800 0.434871
235.981500 -0.680993
236.188300 -2.915400
236.395100 0.012346
236.601800 0.000000
236.808700 2.960946
237.015500 -0.331278
237.222300 0.828392
237.429200 3.265290
237.636000 -0.235556
237.842900 -1.029555
238.049800 0.117151
238.256700 -0.013305
238.463600 1.038027
238.670600 2.970812
238.877500 1.136661
239.084500 0.000000
239.291500 3.226342
239.498500 -0.691503
239.705500 -0.112422
239.912500 1.845098
240.119500 -1.202455
240.326600 -0.476186
240.533700 0.000000
240.740700 0.696897
240.947800 2.990339
241.154900 1.134905
241.362100 0.171211
241.569200 -0.271717
241.776400 2.999131
241.983500 -0.256303
242.190700 0.249219
242.397900 0.000000
242.605100 2.537819
242.812400 -0.327689
243.019600 1.138489
243.226900 0.482231
243.434100 -0.166982
243.641400 2.736397
243.848700 0.457743
244.056000 0.000000
244.263400 0.098118
244.470700 3.082785
244.678100 3.082426
244.885400 -0.223912
245.092800 2.682145
245.300200 -0.443469
245.507600 0.425833
245.715100 1.110349
245.922500 3.026125
246.130000 1.230449
246.337500 0.033105
246.544900 1.073980
246.752400 0.677118
246.960000 3.165244
247.167500 3.215373
247.375000 0.000000
247.582600 0.224312
247.790200 -1.070302
247.997800 3.025715
248.205400 3.262925
248.413000 -0.064277
248.620600 2.727541
248.828300 0.945930
249.035900 -0.180254
249.243600 3.093772
249.451300 0.727301
249.659000 0.964681
249.866700 3.168203
250.074500 3.226342
250.282200 3.189490
250.490000 0.265728
250.697800 0.743152
250.905600 1.157788
251.113400 0.526809
251.321200 0.235337
251.529000 2.008600
251.736900 3.177536
251.944700 0.415086
252.152600 3.289589
252.360500 0.130334
252.568400 -0.369054
252.776300 -1.090752
252.984300 0.162431
253.192200 1.186086
253.400200 0.212369
253.608200 2.599883
253.816200 1.178592
254.024200 2.872739
254.232200 2.414973
254.440200 0.000000
254.648300 2.769377
254.856400 0.377286
255.064400 0.410486
255.272500 3.097604
255.480600 0.262219
255.688800 -2.469822
255.896900 0.258607
256.105100 0.545309
256.313200 -0.349617
256.521400 2.827369
256.729600 3.025715
256.937800 3.171434
257.146000 -0.185779
257.354300 -3.095169
257.562500 0.499969
257.770800 -2.829304
257.979100 1.091542
258.187400 2.833784
258.395700 0.156443
258.604000 3.034628
258.812400 1.295829
259.020700 1.101845
259.229100 0.923510
259.437500 0.446974
259.645900 3.198382
259.854300 2.878522
260.062700 0.897595
260.271100 0.997927
260.479600 3.097604
260.688100 0.638014
260.896500 3.252853
261.105000 2.089905
261.313500 -0.516178
261.522100 0.672880
261.730600 0.223327
261.939200 2.701568
262.147700 2.989895
262.356300 2.745075
262.564900 -0.421049
262.773500 0.541923
262.982200 0.158176
263.190800 0.000000
263.399500 0.134208
263.608100 0.051798
263.816800 0.047409
264.025500 2.396199
264.234200 2.158362
264.442900 -0.934141
264.651700 0.993801
264.860400 0.558954
265.069200 0.726870
265.278000 2.990339
265.486800 0.107247
265.695600 2.450249
265.904400 0.371068
266.113300 2.599883
266.322100 3.063333
266.531000 2.294466
266.739900 2.294466
266.948800 0.296503
267.157700 2.884795
267.366600 3.055378
267.575500 -0.288441
267.784500 2.550228
267.993500 -0.045450
268.202400 2.970812
268.411400 0.192299
268.620500 2.761176
268.829500 0.071824
269.038500 2.123852
269.247600 0.101096
269.456600 2.008600
269.665700 2.965672
269.874800 2.907411
270.083900 0.483685
270.293100 0.000000
270.502200 0.631508
270.711400 2.127105
270.920500 2.833784
271.129700 2.985426
271.338900 1.793391
271.548100 -0.295254
271.757300 0.705912
271.966600 2.890421
272.175800 0.448305
272.385100 3.132580
272.594400 0.469752
272.803700 1.097323
273.013000 0.298281
273.222300 2.994757
273.431600 3.165244
273.641000 0.931029
273.850400 -0.256039
274.059700 0.842157
274.269100 3.209515
274.478500 2.950851
274.688000 0.060030
274.897400 2.866287
275.106900 1.591065
275.316300 0.253975
275.525800 3.067071
275.735300 -2.801404
275.944800 0.226100
276.154300 2.662758
276.363900 -0.156543
276.573400 -0.002503
276.783000 2.965672
276.992600 0.180437
277.202200 1.122996
277.411800 2.587711
277.621400 -0.499831
277.831000 3.118595
278.040700 1.378196
278.250300 2.820201
278.460000 0.289104
278.669700 -0.051354
278.879400 -0.435675
279.089100 2.691965
279.298900 0.374835
279.508600 3.025715
279.718400 3.272770
279.928100 0.000000
280.137900 0.166931
280.347700 2.632457
280.557600 2.960946
280.767400 0.760264
280.977200 0.371097
281.187100 0.000000
281.397000 3.089905
281.606900 -3.328583
281.816800 0.924402
282.026700 2.357935
282.236600 2.935003
282.446600 -0.313767
282.656500 -3.014521
282.866500 1.469471
283.076500 -0.190460
283.286500 3.115278
283.496500 1.407350
283.706500 2.907411
283.916600 2.866287
284.126600 0.845098
284.336700 -0.001406
284.546800 0.663432
284.756900 0.196412
284.967000 2.896526
285.177100 -0.107480
285.387300 0.000000
285.597400 -0.106492
285.807600 -0.595529
286.017800 0.307026
286.228000 -3.080266
286.438200 3.171434
286.648400 0.273999
286.858700 0.384476
287.068900 2.760422
287.279200 2.846955
287.489500 2.414973
287.699800 1.359625
287.910100 -0.194401
288.120400 0.089668
288.330800 -0.776404
288.541100 3.352954
288.751500 2.217484
288.961900 0.889302
289.172300 -3.102434
289.382700 0.750534
289.593100 2.913284
289.803500 -3.095169
290.014000 2.980458
290.224500 3.059185
290.434900 0.000000
290.645400 -0.247909
290.855900 2.653213
291.066500 1.221849
291.277000 2.744293
291.487500 -0.236971
291.698100 0.489885
291.908700 2.338456
292.119300 3.059185
292.329900 3.042969
292.540500 0.258532
292.751100 0.075355
292.961800 0.000000
293.172400 0.943547
293.383100 0.000000
293.593800 -0.155692
293.804500 2.495544
294.015200 1.658239
294.226000 -2.437751
294.436700 1.477121
294.647500 0.126715
294.858200 3.074816
295.069000 3.055378
295.279800 2.736397
295.490600 0.000000
295.701500 0.155010
295.912300 0.436382
296.123200 1.323449
296.334000 2.719331
296.544900 0.650291
296.755800 0.283876
296.966700 0.186415
297.177700 2.945961
297.388600 2.935003
297.599500 2.269513
297.810500 0.002477
298.021500 3.149219
298.232500 0.115433
298.443500 1.690196
298.654500 0.853254
298.865600 3.125806
299.076600 0.451952
299.287700 0.000000
299.498800 0.731302
299.709900 2.902003
299.921000 0.478642
300.132100 3.038620
300.343200 0.904958
300.554400 0.214283
300.765500 -0.283656
300.976700 0.000000
301.187900 0.780205
301.399100 2.813581
301.610300 3.129368
301.821500 3.364739
302.032800 0.072675
302.244100 3.017451
302.455300 3.097604
302.666600 0.247756
302.877900 -0.115092
303.089200 2.357935
303.300600 1.887564
303.511900 0.285070
303.723300 2.924279
303.934600 2.884795
304.146000 -1.758046
304.357400 2.432969
304.568800 2.846955
304.780300 3.192289
304.991700 2.784617
305.203100 2.271842
305.414600 0.201870
305.626100 -0.598185
305.837600 1.401783
306.049100 2.775974
306.260600 3.051153
306.472200 -0.421005
306.683700 2.945961
306.895300 -0.340212
307.106900 0.475850
307.318400 3.034628
307.530100 0.116803
307.741700 0.635918
307.953300 0.530833
308.165000 0.000000
308.376600 3.265290
308.588300 1.138489
308.800000 3.034227
309.011700 3.215109
309.223400 1.201527
309.435100 -0.104845
309.646900 -0.359375
309.858600 3.054996
310.070400 0.005520
310.282200 -0.352183
310.494000 1.663880
310.705800 3.168203
310.917600 3.047275
311.129500 2.840106
311.341300 0.264634
311.553200 0.710591
311.765100 1.214970
311.977000 0.227302
312.188900 0.456026
312.400800 3.030600
312.612700 0.734084
312.824700 1.064148
313.036600 0.303446
313.248600 3.332034
313.460600 0.498506
313.672600 3.275081
313.884600 0.029836
314.096700 2.599883
314.308700 0.947045
314.520800 0.189429
314.732800 3.402777
314.944900 3.146128
315.157000 0.140924
315.369200 3.082785
315.581300 -0.116696
315.793400 -0.484142
316.005600 0.998455
316.217700 0.220769
316.429900 3.525174
316.642100 3.168203
316.854300 3.093772
317.066600 3.463445
317.278800 0.279785
317.491100 3.192289
317.703300 3.336260
317.915600 0.741351
318.127900 0.916843
318.340200 3.097604
318.552500 3.255273
318.764900 3.139249
318.977200 0.568948
319.189600 0.015674
319.401900 3.427324
319.614300 3.245019
319.826700 0.169036
320.039200 3.358886
320.251600 0.410761
320.464000 3.336260
320.676500 0.710195
320.889000 0.541104
321.101400 3.348889
321.313900 3.310268
321.526500 0.476593
321.739000 0.183174
321.951500 0.657325
322.164100 3.132580
322.376600 0.931530
322.589200 0.658709
322.801800 0.271244
323.014400 1.190710
323.227000 0.708473
323.439700 1.113151
323.652300 1.243405
323.865000 3.374748
324.077700 0.448530
324.290400 3.310268
324.503100 0.391360
324.715800 0.597751
324.928500 3.425697
325.141200 3.384174
325.354000 0.587254
325.566800 3.389875
325.779600 0.928845
325.992400 1.390430
326.205200 1.139456
326.418000 3.474362
326.630800 1.257212
326.843700 0.711817
327.056600 0.501276
327.269400 0.128948
327.482300 3.531990
327.695200 3.385964
327.908200 0.905251
328.121100 0.373664
328.334000 0.999031
328.547000 3.636688
328.760000 0.407531
328.973000 3.578983
329.186000 3.564311
329.399000 0.760174
329.612000 3.715669
329.825100 3.485153
330.038100 1.033474
330.251200 3.572872
330.464300 0.578032
330.677400 3.635484
330.890500 1.511765
331.103600 0.589452
331.316700 3.641970
331.529900 3.658298
331.743100 3.583879
331.956200 1.861999
332.169400 0.685185
332.382600 3.520876
332.595900 3.740600
332.809100 0.712115
333.022300 0.500437
333.235600 3.633468
333.448900 0.951084
333.662200 0.392951
333.875500 3.666331
334.088800 1.492945
334.302100 3.740521
334.515400 3.647089
334.728800 1.062087
334.942200 3.626956
335.155500 0.436289
335.368900 3.756864
335.582300 0.517354
335.795800 0.526518
336.009200 3.743823
336.222700 0.785424
336.436100 3.725258
336.649600 3.795949
336.863100 0.889302
337.076600 1.683231
337.290100 3.741388
337.503600 3.672098
337.717200 3.759290
337.930700 3.722716
338.144300 1.677233
338.357900 3.656290
338.571500 1.135886
338.785100 1.265455
338.998700 3.739731
339.212400 3.815312
339.426000 3.712144
339.639700 3.667266
339.853300 3.765594
340.067000 3.741388
340.280700 1.661790
340.494500 1.003323
340.708200 1.720237
340.921900 3.796644
341.135700 3.715669
341.349500 1.806987
341.563300 1.010240
341.777100 3.818094
341.990900 1.001862
342.204700 3.816042
342.418500 3.869232
342.632400 3.830460
342.846300 3.839164
343.060100 0.476593
343.274000 3.825036
343.487900 3.871748
343.701900 3.795185
343.915800 1.993681
344.129700 1.031002
344.343700 3.778006
344.557700 3.886829
344.771700 0.842146
344.985700 1.021851
345.199700 3.834484
345.413700 0.993514
345.627700 0.846316
345.841800 1.224117
346.055900 1.488636
346.269900 0.872133
346.484000 3.898615
346.698100 3.825686
346.912300 0.810133
347.126400 3.906012
347.340600 3.899164
347.554700 3.883264
347.768900 0.908598
347.983100 1.916752
348.197300 3.889246
348.411500 1.710609
348.625700 1.144126
348.840000 1.343521
349.054200 3.926085
349.268500 1.515139
349.482800 0.983837
349.697100 3.921634
349.911400 1.211314
350.125700 1.123820
350.340000 1.271351
350.554400 3.966001
350.768700 1.442984
350.983100 1.116417
351.197500 3.889246
351.411900 1.103624
351.626300 1.139340
351.840700 0.898200
352.055200 0.844185
352.269600 1.116861
352.484100 1.070038
352.698600 0.873465
352.913100 1.618103
353.127600 3.993348
353.342100 3.948266
353.556600 0.938189
353.771200 4.007534
353.985800 3.943643
354.200300 3.930898
354.414900 0.722217
354.629500 1.105739
354.844100 1.036666
355.058800 3.971879
355.273400 1.605881
355.488100 1.284988
355.702700 3.991448
355.917400 3.938920
356.132100 0.959004
356.346800 1.578879
356.561500 1.379052
356.776300 3.974327
356.991000 1.202487
357.205800 3.987264
357.420600 1.321684
357.635300 3.982045
357.850100 4.018617
358.065000 2.368685
358.279800 1.510727
358.494600 3.959995
358.709500 1.290245
358.924300 3.975799
359.139200 2.415966
359.354100 3.988202
359.569000 2.384285
359.783900 1.200513
359.998900 3.957464
360.213800 1.014337
360.428800 1.406099
360.643800 3.982497
360.858700 3.960946
361.073700 4.040048
361.288800 1.337992
361.503800 4.026452
361.718800 1.309455
361.933900 4.009323
362.148900 1.002346
362.364000 3.994713
362.579100 4.062845
362.794200 4.002986
363.009300 1.229641
363.224500 0.943425
363.439600 1.320130
363.654800 4.034989
363.869900 1.800278
364.085100 0.882593
364.300300 1.271109
364.515500 4.049102
364.730800 1.220236
364.946000 2.131328
365.161200 1.090718
365.376500 4.086360
365.591800 1.884543
365.807100 4.020403
366.022400 1.141048
366.237700 1.974218
366.453000 4.118562
366.668400 0.938926
366.883700 4.063634
367.099100 1.411104
367.314500 1.108244
367.529900 4.111531
367.745300 1.074471
367.960700 1.196724
368.176100 4.093071
368.391600 1.070038
368.607000 4.134305
368.822500 4.111901
369.038000 4.150173
369.253500 4.100405
369.469000 1.384149
369.684500 4.136974
369.900100 1.379200
370.115600 1.421522
370.331200 0.988269
370.546800 1.634187
370.762400 2.206986
370.978000 1.306586
371.193600 4.104351
371.409200 4.124798
371.624900 1.318099
371.840500 0.999571
372.056200 1.463043
372.271900 4.101128
372.487600 1.625089
372.703300 4.129915
372.919000 0.915073
373.134800 4.137671
373.350500 1.146415
373.566300 1.574853
373.782000 1.605614
373.997800 1.276847
374.213600 2.064134
374.429400 1.888859
374.645300 1.675990
374.861100 4.167317
375.077000 1.196223
375.292800 4.182329
375.508700 1.410837
375.724600 1.709527
375.940500 1.186592
376.156400 1.945702
376.372400 1.639223
376.588300 1.689750
376.804300 1.609407
377.020300 4.247581
377.236200 1.655182
377.452200 1.565666
377.668200 1.760560
377.884300 1.894870
378.100300 1.266046
378.316400 1.587729
378.532400 1.801206
378.748500 1.353922
378.964600 1.572880
379.180700 4.308394
379.396800 4.318189
379.612900 4.277861
379.829100 1.415743
380.045200 4.285760
380.261400 1.259468
380.477600 1.739302
380.693800 1.699518
380.910000 4.341138
381.126200 4.287174
381.342400 1.653441
381.558700 1.032624
381.774900 4.288607
381.991200 1.326595
382.207500 1.121265
382.423800 1.446403
382.640100 1.585678
382.856400 4.341336
383.072800 4.319502
383.289100 1.665300
383.505500 1.442807
383.721900 2.026159
383.938200 4.339471
384.154600 4.345099
384.371100 4.337779
384.587500 1.609219
384.803900 1.681148
385.020400 1.583922
385.236800 1.452157
385.453300 4.374308
385.669800 4.340702
385.886300 1.144315
386.102800 1.655969
386.319400 1.729199
386.535900 1.202592
386.752500 4.388581
386.969000 1.681931
387.185600 2.191862
387.402200 4.400210
387.618800 4.400573
387.835500 1.816573
388.052100 2.313917
388.268700 4.405654
388.485400 1.133948
388.702100 1.913847
388.918800 4.402382
389.135500 4.421044
389.352200 1.297949
389.568900 1.804642
389.785600 4.411367
390.002400 1.268587
390.219200 1.300426
390.435900 1.463394
390.652700 1.732220
390.869500 4.427064
391.086300 1.466318
391.303200 1.784413
391.520000 1.344044
391.736900 1.719308
391.953700 1.416317
392.170600 1.269516
392.387500 2.027826
392.604400 2.078451
392.821300 1.075298
393.038300 1.732450
393.255200 2.475054
393.472200 1.187326
393.689100 2.369844
393.906100 1.112866
394.123100 1.190128
394.340100 4.463997
394.557200 1.330712
394.774200 2.540359
394.991200 1.269531
395.208300 1.252805
395.425400 1.144404
395.642500 1.263873
395.859600 1.230321
396.076700 1.298157
396.293800 1.094246
396.510900 1.391828
396.728100 1.477546
396.945300 1.226721
397.162400 1.144953
397.379600 1.106117
397.596800 1.096518
397.814000 1.207519
398.031300 1.302661
398.248500 1.422796
398.465800 0.971217
398.683000 0.964112
398.900300 1.238074
399.117600 1.096018
399.334900 1.058728
399.552200 1.000965
399.769600 0.888672
399.986900 0.999873
400.204300 1.071246
400.421600 0.935603
400.639000 1.131259
400.856400 0.954204
401.073800 0.997104
401.291200 0.956499
401.508700 0.967586
401.726100 0.851624
401.943600 0.878075
402.161000 0.907050
402.378500 0.980811
402.596000 0.859283
402.813500 0.855268
403.031000 0.961858
403.248600 1.023649
403.466100 0.926352
403.683700 0.687848
403.901300 0.883323
404.118900 0.835401
404.336500 1.066564
404.554100 0.785236
404.771700 0.756551
404.989300 0.924637
405.207000 0.885137
405.424600 0.830942
405.642300 0.801164
405.860000 0.812728
406.077700 0.800213
406.295400 0.798225
406.513100 0.757963
406.730900 0.770393
406.948600 0.795748
407.166400 0.794419
407.384200 0.749101
407.602000 0.890745
407.819800 0.735257
408.037600 0.776376
408.255400 0.617380
408.473300 0.637544
408.691100 0.628127
408.909000 0.719327
409.126900 0.696963
409.344800 0.775471
409.562700 0.728690
409.780600 0.738723
409.998500 0.752385
410.216500 0.713015
410.434400 0.646884
410.652400 0.693800
410.870400 0.670483
411.088400 0.674030
411.306400 0.659881
411.524400 0.662097
411.742400 0.602405
411.960500 0.693616
412.178500 0.580583
412.396600 0.606025
412.614700 0.635741
412.832800 0.599302
413.050900 0.678403
413.269000 0.712621
413.487100 0.607826
413.705300 0.652059
413.923400 0.611155
414.141600 0.592752
414.359800 0.576138
414.578000 0.695687
414.796200 0.551401
415.014400 0.607623
415.232600 0.574957
415.450900 0.618129
415.669200 0.638163
415.887400 0.574286
416.105700 0.644670
416.324000 0.558322
416.542300 0.550734
416.760600 0.571129
416.979000 0.544429
417.197300 0.596168
417.415700 0.538190
417.634100 0.507895
417.852400 0.565633
418.070800 0.586038
418.289300 0.560371
418.507700 0.514261
418.726100 0.460719
418.944600 0.488985
419.163000 0.486393
419.381500 0.522179
419.600000 0.511195
419.818500 0.477678
420.037000 0.493594
420.255500 0.484415
420.474100 0.512007
420.692600 0.481953
420.911200 0.513741
421.129800 0.452399
421.348300 0.499179
421.566900 0.511469
421.785600 0.472050
422.004200 0.504279
422.222800 0.489114
422.441500 0.488892
422.660100 0.435920
422.878800 0.486056
423.097500 0.453503
423.316200 0.478676
423.534900 0.506103
423.753600 0.487256
423.972400 0.469218
424.191100 0.495091
424.409900 0.441936
424.628700 0.484289
424.847500 0.466944
425.066300 0.491387
425.285100 0.407154
425.503900 0.467632
425.722800 0.507252
425.941600 0.489095
426.160500 0.486579
426.379300 0.489505
426.598200 0.434587
426.817100 0.425816
427.036100 0.503409
427.255000 0.424370
427.473900 0.519814
427.692900 0.439867
427.911800 0.458306
428.130800 0.440441
428.349800 0.414111
428.568800 0.425578
428.787800 0.426577
429.006800 0.441724
429.225900 0.436300
429.444900 0.416833
429.664000 0.396630
429.883100 0.435057
430.102200 0.467215
430.321300 0.460547
430.540400 0.433165
430.759500 0.449944
430.978700 0.442044
431.197800 0.457846
431.417000 0.430407
431.636200 0.423357
431.855300 0.434439
432.074500 0.415027
432.293800 0.400455
432.513000 0.484665
432.732200 0.401470
432.951500 0.471298
433.170700 0.440698
433.390000 0.427057
433.609300 0.444690
433.828600 0.426783
434.047900 0.411602
434.267300 0.426594
434.486600 0.444206
434.705900 0.382508
434.925300 0.416657
435.144700 0.383999
435.364100 0.400013
435.583500 0.444943
435.802900 0.416733
436.022300 0.412571
436.241800 0.414602
436.461200 0.405676
436.680700 0.406901
436.900100 0.411442
437.119600 0.448970
437.339100 0.391455
437.558600 0.410309
437.778200 0.423633
437.997700 0.379956
438.217300 0.396094
438.436800 0.433194
438.656400 0.408052
438.876000 0.442485
439.095600 0.436865
439.315200 0.480355
439.534800 0.450956
439.754500 0.357593
439.974100 0.453344
440.193800 0.421327
440.413500 0.440127
440.633100 0.403373
440.852800 0.435372
441.072500 0.436177
441.292300 0.414236
441.512000 0.437554
441.731800 0.468608
441.951500 0.430808
442.171300 0.438837
442.391100 0.424767
442.610900 0.455692
442.830700 0.423954
443.050500 0.448304
443.270300 0.433226
443.490200 0.428523
443.710100 0.438942
443.929900 0.406860
444.149800 0.417634
444.369700 0.433230
444.589600 0.433998
444.809500 0.428941
445.029500 0.434976
445.249400 0.392785
445.469400 0.451253
445.689400 0.442299
445.909300 0.407428
446.129300 0.443615
446.349300 0.449751
446.569400 0.439262
446.789400 0.408002
447.009400 0.490502
447.229500 0.453518
447.449600 0.448076
447.669600 0.447294
447.889700 0.475012
448.109800 0.417027
448.330000 0.443757
448.550100 0.480962
448.770200 0.436934
448.990400 0.428311
449.210600 0.487955
449.430700 0.453413
449.650900 0.463752
449.871100 0.446460
450.091400 0.461148
450.311600 0.486440
450.531800 0.444010
450.752100 0.469903
450.972400 0.453984
451.192600 0.483954
451.412900 0.467507
451.633200 0.505334
451.853500 0.495996
452.073900 0.478250
452.294200 0.466707
452.514600 0.501502
452.734900 0.462847
452.955300 0.451743
453.175700 0.535906
453.396100 0.516688
453.616500 0.552130
453.836900 0.478801
454.057400 0.525599
454.277800 0.466726
454.498300 0.545015
454.718800 0.466240
454.939300 0.492725
455.159700 0.522137
455.380300 0.559772
455.600800 0.482947
455.821300 0.530785
456.041900 0.491828
456.262400 0.481833
456.483000 0.515084
456.703600 0.515396
456.924200 0.543533
457.144800 0.539829
457.365400 0.579586
457.586000 0.564053
457.806700 0.524031
458.027400 0.495171
458.248000 0.534676
458.468700 0.614049
458.689400 0.585683
458.910100 0.559137
459.130800 0.552881
459.351600 0.580408
459.572300 0.607259
459.793100 0.617004
460.013800 0.584765
460.234600 0.582050
460.455400 0.554218
460.676200 0.561294
460.897000 0.604642
461.117800 0.595555
461.338700 0.587289
461.559500 0.574379
461.780400 0.578248
462.001300 0.541254
462.222200 0.563149
462.443100 0.616117
462.664000 0.647706
462.884900 0.650471
463.105900 0.576684
463.326800 0.640710
463.547800 0.631626
463.768700 0.650017
463.989700 0.618718
464.210700 0.638667
464.431700 0.595912
464.652800 0.668547
464.873800 0.750028
465.094800 0.619921
465.315900 0.667671
465.537000 0.665049
465.758100 0.656438
465.979200 0.642811
466.200300 0.736076
466.421400 0.679495
466.642500 0.717192
466.863700 0.656933
467.084800 0.687698
467.306000 0.683641
467.527200 0.690479
467.748400 0.689913
467.969600 0.752923
468.190800 0.670722
468.412000 0.753235
468.633300 0.711605
468.854500 0.725437
469.075800 0.670752
469.297000 0.797160
469.518300 0.697344
469.739600 0.805209
469.961000 0.617164
470.182300 0.672589
470.403600 0.740958
470.625000 0.770962
470.846300 0.855653
471.067700 0.733970
471.289100 0.893619
471.510500 0.754337
471.731900 0.776643
471.953300 0.835661
472.174800 0.719821
472.396200 0.741192
472.617700 0.797097
472.839100 0.858455
473.060600 0.789708
473.282100 0.898442
473.503600 0.827754
473.725100 0.833384
473.946700 0.830715
474.168200 0.858398
474.389800 0.842636
474.611300 0.744660
474.832900 0.820924
475.054500 0.843422
475.276100 0.844670
475.497700 0.809298
475.719300 0.818839
475.941000 0.856136
476.162600 0.822771
476.384300 0.890260
476.606000 0.825174
476.827700 0.855862
477.049400 0.878200
477.271100 0.968340
477.492800 0.876616
477.714500 0.920394
477.936300 0.932474
478.158000 0.836863
478.379800 0.892147
478.601600 0.932209
478.823400 0.874696
479.045200 0.939029
479.267000 0.907863
479.488800 0.958811
479.710700 0.865340
479.932500 0.942585
480.154400 0.926950
480.376300 0.899067
480.598200 1.024468
480.820100 0.884713
481.042000 1.016351
481.263900 1.144890
481.485900 0.961309
481.707800 1.001611
481.929800 0.989930
482.151700 0.999213
482.373700 0.951652
482.595700 1.204711
482.817700 1.028630
483.039800 1.156641
483.261800 0.994034
483.483800 0.987447
483.705900 0.903722
483.928000 1.105575
484.150100 0.978355
484.372100 0.988328
484.594300 1.091604
484.816400 1.028826
485.038500 1.070312
485.260600 1.057937
485.482800 0.987764
485.705000 1.191675
485.927100 1.094289
486.149300 1.103703
486.371500 1.084294
486.593700 1.119825
486.816000 1.069560
487.038200 1.102175
487.260500 1.122496
487.482700 1.053589
487.705000 1.068200
487.927300 1.320633
488.149600 1.260242
488.371900 1.209528
488.594200 1.288210
488.816500 1.188203
489.038900 1.171201
489.261200 1.056216
489.483600 1.154409
489.706000 1.165527
489.928400 1.127955
490.150800 1.109289
490.373200 1.095475
490.595600 1.034680
490.818000 1.030300
491.040500 1.159685
491.263000 1.182395
491.485400 1.242252
491.707900 1.099474
491.930400 1.168719
492.152900 1.133259
492.375500 1.161637
492.598000 1.178392
492.820500 1.281244
493.043100 1.191777
493.265700 1.060761
493.488200 1.113747
493.710800 1.322027
493.933400 1.138392
494.156100 1.146746
494.378700 1.089805
494.601300 1.334405
494.824000 1.125437
495.046600 1.231420
495.269300 1.231958
495.492000 1.619454
495.714700 1.395103
495.937400 1.502786
496.160100 1.274764
496.382900 1.443939
496.605600 1.291182
496.828400 1.230651
497.051100 1.118392
497.273900 1.207787
497.496700 1.184182
497.719500 1.186862
497.942300 1.923070
498.165200 1.186404
498.388000 1.398457
498.610900 1.230118
498.833700 1.510406
499.056600 1.235779
499.279500 1.313737
499.502400 1.378780
499.725300 1.229075
499.948200 1.318130
500.171200 1.242679
500.394100 1.315360
500.617100 1.331913
500.840000 1.237351
501.063000 1.377648
501.286000 1.300755
501.509000 1.205183
501.732000 1.347138
501.955100 1.289559
502.178100 1.290002
502.401200 1.266741
502.624200 1.406379
502.847300 1.128037
503.070400 1.585915
503.293500 1.309058
503.516600 1.260913
503.739700 1.336049
503.962800 1.353468
504.186000 1.260123
504.409200 1.133650
504.632300 1.337114
504.855500 2.013045
505.078700 1.166782
505.301900 1.272345
505.525100 1.237226
505.748300 1.635077
505.971600 1.375368
506.194800 1.737537
506.418100 1.287669
506.641400 1.590772
506.864700 1.258763
507.088000 1.421717
507.311300 1.360191
507.534600 1.227654
507.757900 1.499689
507.981300 1.463212
508.204600 1.300672
508.428000 1.334319
508.651400 1.091078
508.874800 1.276251
509.098200 1.182502
509.321600 1.289617
509.545000 1.195646
509.768500 1.472648
509.991900 1.479617
510.215400 1.369788
510.438800 1.105696
510.662300 1.549067
510.885800 1.437176
511.109300 1.568714
511.332900 1.221472
511.556400 1.382345
511.779900 1.142011
512.003500 1.230066
512.227000 1.693334
512.450600 1.344885
512.674200 1.296095
512.897800 1.006464
513.121400 1.300173
513.345100 1.335016
513.568700 1.218739
513.792300 1.291059
514.016000 1.201333
514.239700 1.435536
514.463400 1.155643
514.687100 1.294961
514.910800 1.118737
515.134500 1.195511
515.358200 1.233840
515.581900 1.308753
515.805700 1.238791
516.029500 1.564552
516.253200 1.380473
516.477000 1.302208
516.700800 1.321258
516.924600 1.221506
517.148500 1.078364
517.372300 1.146368
517.596100 1.175378
517.820000 1.248490
518.043900 1.587241
518.267700 1.165364
518.491600 1.232158
518.715500 1.135943
518.939500 1.273482
519.163400 1.274484
519.387300 1.131389
519.611300 1.105193
519.835200 1.051579
520.059200 1.489756
520.283200 1.158338
520.507200 1.255623
520.731200 1.372150
520.955200 1.171074
521.179200 1.362034
521.403300 1.166235
521.627300 1.220847
521.851400 1.258426
522.075500 1.236150
522.299600 1.202583
522.523700 1.189806
522.747800 1.086355
522.971900 1.089632
523.196000 1.206190
523.420200 1.205931
523.644300 1.252197
523.868500 1.061962
524.092700 1.032274
524.316900 1.287902
524.541100 0.966074
524.765300 1.507888
524.989500 1.089284
525.213800 1.542126
525.438000 1.145843
525.662300 1.220774
525.886500 1.021755
526.110800 0.982728
526.335100 0.980723
526.559400 1.212508
526.783700 1.116068
527.008100 1.024206
527.232400 1.057771
527.456800 1.022620
527.681100 0.937419
527.905500 0.981265
528.129900 0.966066
528.354300 1.017772
528.578700 0.899859
528.803100 1.091120
529.027600 0.991432
529.252000 1.200410
529.476500 0.920850
529.700900 1.067715
529.925400 1.022877
530.149900 1.058876
530.374400 1.134657
530.598900 1.098372
530.823400 1.025384
531.048000 0.953213
531.272500 1.095040
531.497100 0.858668
531.721700 0.925547
531.946200 0.922925
532.170800 0.929402
532.395400 0.986156
532.620000 0.875518
532.844700 0.809642
533.069300 0.901167
533.294000 0.969459
533.518600 1.032332
533.743300 0.955054
533.968000 0.800483
534.192700 0.882387
534.417400 0.974409
534.642100 0.953390
534.866800 0.886292
535.091600 0.940645
535.316300 0.865141
535.541100 0.793483
535.765900 0.757870
535.990700 0.799163
536.215500 0.869747
536.440300 0.776454
536.665100 0.802777
536.889900 0.859700
537.114800 0.790893
537.339600 0.841881
537.564500 0.759296
537.789400 0.877611
538.014300 0.827559
538.239200 0.867644
538.464100 0.837833
538.689000 0.759164
538.913900 0.731025
539.138900 0.724361
539.363800 0.730915
539.588800 0.686961
539.813800 0.725448
540.038800 0.731509
540.263800 0.738086
540.488800 0.773599
540.713800 0.684299
540.938900 0.692087
541.163900 0.691309
541.389000 0.727863
541.614000 0.713266
541.839100 0.754346
542.064200 0.653560
542.289300 0.720407
542.514400 0.736187
542.739600 0.735073
542.964700 0.718062
543.189900 0.670564
543.415000 0.716360
543.640200 0.636511
543.865400 0.712054
544.090600 0.672573
544.315800 0.680010
544.541000 0.670149
544.766200 0.642682
544.991500 0.603340
545.216700 0.627445
545.442000 0.629836
545.667300 0.608915
545.892600 0.598487
546.117900 0.588457
546.343200 0.667850
546.568500 0.585582
546.793800 0.570803
547.019200 0.599852
547.244500 0.599911
547.469900 0.575739
547.695300 0.604769
547.920600 0.556611
548.146000 0.574782
548.371500 0.582209
548.596900 0.569236
548.822300 0.530767
549.047800 0.610211
549.273200 0.508774
549.498700 0.546841
549.724200 0.553092
549.949600 0.600338
550.175100 0.515234
550.400700 0.499738
550.626200 0.559161
550.851700 0.550391
551.077300 0.485134
551.302800 0.525627
551.528400 0.503480
551.754000 0.522792
551.979600 0.480107
552.205200 0.515298
552.430800 0.524515
552.656400 0.477925
552.882000 0.488516
553.107700 0.470239
553.333300 0.451907
553.559000 0.463523
553.784700 0.484383
554.010400 0.488229
554.236100 0.470613
554.461800 0.513960
554.687500 0.468822
554.913200 0.397858
555.139000 0.406718
555.364800 0.433883
555.590500 0.435987
555.816300 0.452125
556.042100 0.434371
556.267900 0.431102
556.493700 0.460452
556.719500 0.409729
556.945400 0.410655
557.171200 0.414829
557.397100 0.370944
557.623000 0.357062
557.848800 0.444602
558.074700 0.392036
558.300600 0.385876
558.526600 0.422886
558.752500 0.382615
558.978400 0.370371
559.204400 0.361237
559.430300 0.361688
559.656300 0.344141
559.882300 0.334244
560.108300 0.377583
560.334300 0.357388
560.560300 0.370046
560.786300 0.366364
561.012400 0.333211
561.238400 0.359494
561.464500 0.333524
561.690500 0.355880
561.916600 0.337252
562.142700 0.379714
562.368800 0.324563
562.594900 0.331176
562.821100 0.362546
563.047200 0.342810
563.273300 0.308044
563.499500 0.341071
563.725700 0.303435
563.951900 0.299358
564.178100 0.293016
564.404300 0.315288
564.630500 0.305978
564.856700 0.293402
565.082900 0.283977
565.309200 0.329724
565.535500 0.299066
565.761700 0.295876
565.988000 0.297389
566.214300 0.295455
566.440600 0.288836
566.666900 0.275108
566.893200 0.262525
567.119600 0.274612
567.345900 0.266122
567.572300 0.288475
567.798700 0.255009
568.025000 0.276114
568.251400 0.264089
568.477800 0.252723
568.704300 0.252787
568.930700 0.250636
569.157100 0.255476
569.383600 0.263838
569.610000 0.249161
569.836500 0.263264
570.063000 0.245902
570.289500 0.258551
570.516000 0.263188
570.742500 0.230602
570.969000 0.240260
571.195600 0.253073
571.422100 0.238196
571.648700 0.248338
571.875200 0.248963
572.101800 0.238976
572.328400 0.240661
572.555000 0.237737
572.781600 0.237903
573.008200 0.239581
573.234900 0.250994
573.461500 0.236551
573.688200 0.240288
573.914900 0.229245
574.141500 0.228515
574.368200 0.225456
574.594900 0.223780
574.821600 0.213778
575.048400 0.217815
575.275100 0.224741
575.501800 0.228512
575.728600 0.230966
575.955400 0.214333
576.182100 0.226548
576.408900 0.214917
576.635700 0.216113
576.862600 0.211980
577.089400 0.202829
577.316200 0.208196
577.543100 0.202338
577.769900 0.206329
577.996800 0.199618
578.223700 0.197810
578.450500 0.200620
578.677400 0.205316
578.904400 0.201785
579.131300 0.193621
579.358200 0.185136
579.585100 0.198196
579.812100 0.193363
580.039100 0.197180
580.266000 0.186536
580.493000 0.190456
580.720000 0.181024
580.947000 0.190785
581.174100 0.179045
581.401100 0.183853
581.628100 0.170916
581.855200 0.172433
582.082200 0.181828
582.309300 0.173324
582.536400 0.168565
582.763500 0.167201
582.990600 0.172723
583.217700 0.156315
583.444900 0.175171
583.672000 0.178708
583.899100 0.184288
584.126300 0.167984
584.353500 0.166437
584.580700 0.173193
584.807900 0.167612
585.035100 0.176117
585.262300 0.162569
585.489500 0.166767
585.716700 0.160506
585.944000 0.155946
586.171300 0.158479
586.398500 0.163263
586.625800 0.168337
586.853100 0.156247
587.080400 0.158266
587.307700 0.155602
587.535000 0.159450
587.762400 0.152021
587.989700 0.154564
588.217100 0.150765
588.444500 0.151991
588.671800 0.144489
588.899200 0.167231
589.126600 0.147517
589.354000 0.162983
589.581500 0.157544
589.808900 0.149927
590.036300 0.155317
590.263800 0.157700
590.491300 0.146418
590.718700 0.141397
590.946200 0.150101
591.173700 0.137493
591.401200 0.155968
591.628800 0.152780
591.856300 0.149627
592.083800 0.143717
592.311400 0.141703
592.538900 0.131041
592.766500 0.145041
592.994100 0.134763
593.221700 0.145322
593.449300 0.143676
593.676900 0.138290
593.904600 0.141512
594.132200 0.132813
594.359800 0.147686
594.587500 0.139402
594.815200 0.138539
595.042900 0.133373
595.270500 0.137806
595.498300 0.145211
595.726000 0.142540
595.953700 0.142691
596.181400 0.137465
596.409200 0.130064
596.636900 0.143241
596.864700 0.150777
597.092500 0.139280
597.320300 0.139047
597.548100 0.128865
597.775900 0.144718
598.003700 0.136708
598.231500 0.138256
598.459400 0.135497
598.687200 0.147068
598.915100 0.138405
599.143000 0.132592
599.370900 0.124393
599.598800 0.133114
599.826700 0.139130
600.054600 0.137047
600.282500 0.133047
600.510500 0.129624
600.738400 0.113459
600.966400 0.125817
601.194400 0.118433
601.422300 0.117512
601.650300 0.120521
601.878300 0.122998
602.106400 0.123649
602.334400 0.127346
602.562400 0.133918
602.790500 0.127879
603.018500 0.125136
603.246600 0.122245
603.474700 0.119676
603.702800 0.133784
603.930900 0.132019
604.159000 0.122179
604.387100 0.140133
604.615200 0.124695
604.843400 0.129321
605.071500 0.125036
605.299700 0.118908
605.527900 0.117531
605.756100 0.111200
605.984300 0.123286
606.212500 0.117362
606.440700 0.117329
606.668900 0.117659
606.897200 0.112404
607.125400 0.112511
607.353700 0.096691
607.581900 0.114656
607.810200 0.104829
608.038500 0.112615
608.266800 0.109895
608.495100 0.111289
608.723500 0.098392
608.951800 0.113033
609.180100 0.100099
609.408500 0.110388
609.636900 0.119844
609.865300 0.111844
610.093600 0.117886
610.322000 0.110535
610.550500 0.110480
610.778900 0.108380
611.007300 0.115187
611.235700 0.110418
611.464200 0.118875
611.692700 0.110719
611.921100 0.113942
612.149600 0.111905
612.378100 0.121412
612.606600 0.114810
612.835100 0.108776
613.063700 0.109848
613.292200 0.119032
613.520800 0.123402
613.749300 0.108184
613.977900 0.112230
614.206500 0.108552
614.435100 0.119941
614.663700 0.125538
614.892300 0.109710
615.120900 0.110686
615.349500 0.109083
615.578200 0.109484
615.806800 0.106674
616.035500 0.104287
616.264200 0.105568
616.492900 0.114546
616.721600 0.119562
616.950300 0.114588
617.179000 0.103764
617.407700 0.105117
617.636500 0.100484
617.865200 0.118177
618.094000 0.108021
618.322700 0.111061
618.551500 0.107754
618.780300 0.095778
619.009100 0.115168
619.237900 0.116277
619.466700 0.124204
619.695600 0.117092
619.924400 0.118336
620.153300 0.120183
620.382100 0.107026
620.611000 0.083606
620.839900 0.090526
621.068800 0.094044
621.297700 0.120784
621.526600 0.109752
621.755600 0.094281
621.984500 0.112302
622.213500 0.092861
622.442400 0.113779
622.671400 0.097892
622.900400 0.110502
623.129400 0.103927
623.358400 0.101254
623.587400 0.089852
623.816400 0.107536
624.045400 0.121664
624.274500 0.091992
624.503500 0.090802
624.732600 0.081573
624.961700 0.107053
625.190800 0.094466
625.419900 0.090891
625.649000 0.097540
625.878100 0.095366
626.107200 0.086135
626.336400 0.096617
626.565500 0.111589
626.794700 0.116289
627.023800 0.098971
627.253000 0.099748
627.482200 0.112283
627.711400 0.096890
627.940600 0.104503
628.169800 0.106990
628.399100 0.106684
628.628300 0.093763
628.857600 0.093936
629.086800 0.101822
629.316100 0.102366
629.545400 0.097595
629.774700 0.098582
630.004000 0.108260
630.233300 0.109908
630.462600 0.098166
630.692000 0.100717
630.921300 0.112197
631.150700 0.114771
631.380100 0.111446
631.609400 0.108193
631.838800 0.091085
632.068200 0.090177
632.297600 0.082315
632.527100 0.075005
632.756500 0.108854
632.985900 0.097205
633.215400 0.094474
633.444800 0.079101
633.674300 0.108419
633.903800 0.110443
634.133300 0.090091
634.362800 0.090622
634.592300 0.111728
634.821800 0.117251
635.051400 0.124992
635.280900 0.108282
635.510500 0.084313
635.740000 0.097025
635.969600 0.102776
636.199200 0.091066
636.428800 0.090249
636.658400 0.100434
636.888000 0.081839
637.117700 0.085618
637.347300 0.091792
637.577000 0.108226
637.806600 0.098462
638.036300 0.094951
638.266000 0.103342
638.495700 0.082981
638.725400 0.086596
638.955100 0.093670
639.184800 0.083976
639.414500 0.092722
639.644300 0.124568
639.874000 0.105125
640.103800 0.123786
640.333600 0.089863
640.563300 0.095719
640.793100 0.100741
641.022900 0.088278
641.252800 0.087631
641.482600 0.102970
641.712400 0.099076
641.942300 0.118335
642.172100 0.102648
642.402000 0.102104
642.631900 0.037375
642.861700 0.089465
643.091600 0.127160
643.321600 0.084465
643.551500 0.079611
643.781400 0.136099
644.011300 0.079614
644.241300 0.083095
644.471200 0.059989
644.701200 0.085648
644.931200 0.107529
645.161200 0.101078
645.391200 0.095516
645.621200 0.175750
645.851200 0.013974
646.081200 0.087105
646.311300 0.109160
646.541300 0.101560
646.771400 0.053224
647.001500 0.089530
647.231600 0.114896
647.461600 0.137917
647.691800 0.098646
647.921900 0.084781
648.152000 0.095457
648.382100 0.079147
648.612300 0.101969
648.842400 0.071051
649.072600 0.097526
649.302800 0.099043
649.532900 0.104640
649.763100 0.103932
649.993300 0.078025
650.223600 0.124288
650.453800 0.070310
650.684000 0.099518
650.914300 0.103221
651.144500 0.093229
651.374800 0.090698
651.605100 0.094317
651.835400 0.123669
652.065700 0.078450
652.296000 0.073023
652.526300 0.104186
652.756600 0.060052
652.987000 0.071662
653.217300 0.053622
653.447700 0.097789
653.678000 0.085139
653.908400 0.076644
654.138800 0.099523
654.369200 0.117697
654.599600 0.100232
654.830000 0.117902
655.060500 0.131027
655.290900 0.173912
655.521300 0.150601
655.751800 0.108740
655.982300 0.002910
656.212800 0.000974
656.443300 0.001458
656.673800 0.001232
656.904300 0.053979
657.134800 0.109283
657.365300 0.106629
657.595900 0.108534
657.826400 0.109723
658.057000 0.119935
658.287500 0.117069
658.518100 0.108937
658.748700 0.111327
658.979300 0.125568
659.209900 0.139337
659.440600 0.160453
659.671200 0.170107
659.901800 0.166041
660.132500 0.175855
660.363200 0.145007
660.593800 0.121338
660.824500 0.124448
661.055200 0.124421
661.285900 0.155770
661.516600 0.097885
661.747400 0.135817
661.978100 0.096004
662.208800 0.140337
662.439600 0.110343
662.670400 0.090938
662.901100 0.112853
663.131900 0.154888
663.362700 0.121364
663.593500 0.123354
663.824300 0.123282
664.055200 0.120314
664.286000 0.049357
664.516800 0.106920
664.747700 0.092728
664.978600 0.116880
665.209400 0.101550
665.440300 0.101810
665.671200 0.080683
665.902100 0.128181
666.133000 0.116606
666.364000 0.109891
666.594900 0.094842
666.825900 0.107429
667.056800 0.086546
667.287800 0.134132
667.518800 0.085234
667.749700 0.138061
667.980700 0.130473
668.211700 0.051340
668.442800 0.112775
668.673800 0.113491
668.904800 0.129069
669.135900 0.101321
669.366900 0.136335
669.598000 0.077799
669.829100 0.077269
670.060200 0.131988
670.291300 0.098467
670.522400 0.100614
670.753500 0.088196
670.984600 0.114911
671.215700 0.116966
671.446900 0.100290
671.678100 0.064674
671.909200 0.092928
672.140400 0.105979
672.371600 0.095557
672.602800 0.093262
672.834000 0.084531
673.065200 0.114985
673.296400 0.074412
673.527700 0.088461
673.758900 0.097826
673.990200 0.066271
674.221400 0.125266
674.452700 0.089039
674.684000 0.080072
674.915300 0.148870
675.146600 0.085790
675.377900 0.062312
675.609300 0.101458
675.840600 0.123082
676.071900 0.089138
676.303300 0.121656
676.534700 0.090420
676.766100 0.087726
676.997400 0.111256
677.228800 0.116308
677.460200 0.072689
677.691700 0.096071
677.923100 0.092397
678.154500 0.089397
678.386000 0.077143
678.617400 0.122641
678.848900 0.095031
679.080400 0.083849
679.311900 0.108331
679.543400 0.079043
679.774900 0.095134
680.006400 0.091666
680.237900 0.091153
680.469400 0.088497
680.701000 0.112321
680.932500 0.088079
681.164100 0.102977
681.395700 0.088812
681.627300 0.106390
681.858900 0.120299
682.090500 0.128428
682.322100 0.072463
682.553700 0.056729
682.785400 0.048930
683.017000 0.109316
683.248700 0.097039
683.480300 0.110883
683.712000 0.056717
683.943700 0.118210
684.175400 0.085064
684.407100 0.099521
684.638800 0.044874
684.870500 0.090357
685.102300 0.091079
685.334000 0.110817
685.565800 0.089150
685.797500 0.090930
686.029300 0.078260
686.261100 0.123147
686.492900 0.113168
686.724700 0.081540
686.956500 0.078159
687.188300 0.102752
687.420200 0.084392
687.652000 0.071266
687.883800 0.094108
688.115700 0.083478
688.347600 0.068157
688.579500 0.063648
688.811400 0.062684
689.043300 0.110404
689.275200 0.076949
689.507100 0.091790
689.739000 0.104422
689.971000 0.076157
690.202900 0.105479
690.434900 0.109893
690.666900 0.105141
690.898800 0.110914
691.130800 0.104130
691.362800 0.110934
691.594800 0.086510
691.826900 0.122436
692.058900 0.122621
692.290900 0.101668
692.523000 0.106542
692.755000 0.124817
692.987100 0.139393
693.219200 0.102405
693.451300 0.095629
693.683400 0.084063
693.915500 0.105780
694.147600 0.119918
694.379700 0.063045
694.611900 0.100038
694.844000 0.086383
695.076200 0.068718
695.308300 0.120995
695.540500 0.101027
695.772700 0.052780
696.004900 0.125205
696.237100 0.106580
696.469300 0.105530
696.701600 0.087997
696.933800 0.068576
697.166000 0.076128
697.398300 0.112658
697.630600 0.101551
697.862800 0.107552
698.095100 0.092523
698.327400 0.105611
698.559700 0.106274
698.792000 0.085088
699.024300 0.080915
699.256700 0.117897
699.489000 0.055758
699.721400 0.103842
699.953700 0.084352
700.186100 0.097228
700.418500 0.094969
700.650900 0.097230
700.883300 0.101794
701.115700 0.103052
701.348100 0.064919
701.580600 0.128649
701.813000 0.114166
702.045400 0.073596
702.277900 0.104096
702.510400 0.074989
702.742900 0.071234
702.975300 0.105431
703.207800 0.080340
703.440300 0.108344
703.672900 0.131802
703.905400 0.052825
704.137900 0.086495
704.370500 0.092004
704.603000 0.083545
704.835600 0.071679
705.068200 0.075147
705.300800 0.116522
705.533400 0.125173
705.766000 0.093533
705.998600 0.085739
706.231200 0.056573
706.463800 0.127201
706.696500 0.101926
706.929100 0.127910
707.161800 0.058212
707.394500 0.104329
707.627200 0.059211
707.859900 0.121331
708.092600 0.101996
708.325300 0.072537
708.558000 0.085772
708.790700 0.095880
709.023500 0.116201
709.256200 0.075453
709.489000 0.073207
709.721700 0.054201
709.954500 0.107122
710.187300 0.060380
710.420100 0.096155
710.652900 0.063994
710.885700 0.100076
711.118600 0.101040
711.351400 0.060995
711.584200 0.082229
711.817100 0.077030
712.050000 0.083879
712.282800 0.087868
712.515700 0.082994
712.748600 0.056942
712.981500 0.090100
713.214400 0.087833
713.447400 0.061365
713.680300 0.094528
713.913200 0.076009
714.146200 0.100480
714.379100 0.071517
714.612100 0.074966
714.845100 0.091553
715.078100 0.076490
715.311100 0.084828
715.544100 0.095030
715.777100 0.083064
716.010200 0.078282
716.243200 0.073090
716.476200 0.129672
716.709300 0.105264
716.942400 0.068724
717.175400 0.087776
717.408500 0.133578
717.641600 0.085432
717.874700 0.082251
718.107800 0.092149
718.341000 0.090367
718.574100 0.045313
718.807200 0.118767
719.040400 0.096796
719.273600 0.058640
719.506700 0.076996
719.739900 0.113556
719.973100 0.076927
720.206300 0.089535
720.439500 0.098428
720.672700 0.059411
720.906000 0.067909
721.139200 0.088696
721.372500 0.100855
721.605700 0.110638
721.839000 0.117423
722.072300 0.079297
722.305500 0.094805
722.538800 0.100302
722.772100 0.095357
723.005500 0.059526
723.238800 0.116832
723.472100 0.070928
723.705500 0.090603
723.938800 0.095030
724.172200 0.068893
724.405600 0.122960
724.638900 0.138264
724.872300 0.076674
725.105700 0.100416
725.339100 0.076338
725.572600 0.086623
725.806000 0.050622
726.039400 0.072268
726.272900 0.099871
726.506300 0.100870
726.739800 0.095257
726.973300 0.076208
727.206800 0.084724
727.440300 0.119069
727.673800 0.099098
727.907300 0.094334
728.140800 0.109712
728.374300 0.102614
728.607900 0.105342
728.841400 0.067548
729.075000 0.110883
729.308600 0.079096
729.542100 0.104128
729.775700 0.084930
730.009300 0.072244
730.242900 0.092846
730.476600 0.104881
730.710200 0.114904
730.943800 0.118042
731.177500 0.101442
731.411100 0.109205
731.644800 0.113478
731.878500 0.072755
732.112200 0.095551
732.345800 0.095151
732.579500 0.118069
732.813300 0.097263
733.047000 0.091560
733.280700 0.093193
733.514500 0.099367
733.748200 0.091881
733.982000 0.090314
734.215700 0.082817
734.449500 0.087925
734.683300 0.102259
734.917100 0.087351
735.150900 0.085233
735.384700 0.105210
735.618500 0.087916
735.852400 0.107504
736.086200 0.096932
736.320100 0.074856
736.553900 0.131988
736.787800 0.077967
737.021700 0.095044
737.255600 0.061026
737.489500 0.087985
737.723400 0.083261
737.957300 0.103368
738.191200 0.090683
738.425200 0.094635
738.659100 0.111768
738.893100 0.069603
739.127100 0.105435
739.361000 0.089779
739.595000 0.122635
739.829000 0.086277
740.063000 0.076593
740.297000 0.116713
740.531000 0.079971
740.765100 0.064310
740.999100 0.100946
741.233200 0.100947
741.467200 0.092630
741.701300 0.092600
741.935400 0.101779
742.169500 0.081122
742.403600 0.095184
742.637700 0.100655
742.871800 0.099423
743.105900 0.087819
743.340000 0.085202
743.574200 0.087904
743.808300 0.114334
744.042500 0.075268
744.276700 0.060375
744.510800 0.091030
744.745000 0.089900
744.979200 0.095487
745.213400 0.061217
745.447700 0.108394
745.681900 0.126801
745.916100 0.100948
746.150400 0.063228
746.384600 0.110571
746.618900 0.097251
746.853200 0.074657
747.087400 0.107242
747.321700 0.103480
747.556000 0.093352
747.790300 0.093882
748.024700 0.038292
748.259000 0.092564
748.493300 0.106277
748.727700 0.078556
748.962000 0.115041
749.196400 0.077087
749.430800 0.104824
749.665200 0.099982
749.899500 0.107444
750.133900 0.087466
750.368400 0.095113
750.602800 0.081329
750.837200 0.079497
751.071700 0.096095
751.306100 0.091021
751.540600 0.078843
751.775000 0.092787
752.009500 0.091254
752.244000 0.105827
752.478500 0.076778
752.713000 0.086591
752.947500 0.072611
753.182000 0.115892
753.416600 0.081059
753.651100 0.107590
753.885600 0.090449
754.120200 0.083602
754.354800 0.084067
754.589400 0.097197
754.823900 0.090988
755.058500 0.128585
755.293100 0.093067
755.527800 0.080992
755.762400 0.123018
755.997000 0.076086
756.231700 0.115771
756.466300 0.083496
756.701000 0.068248
756.935600 0.112207
757.170300 0.073002
757.405000 0.102940
757.639700 0.105460
757.874400 0.105102
758.109100 0.112661
758.343800 0.086358
758.578600 0.079479
758.813300 0.095795
759.048100 0.109527
759.282800 0.084089
759.517600 0.103671
759.752400 0.073149
759.987200 0.076586
760.222000 0.090306
760.456800 0.083300
760.691600 0.082787
760.926400 0.094543
761.161300 0.073327
761.396100 0.073923
761.631000 0.086271
761.865800 0.105722
762.100700 0.092279
762.335600 0.093757
762.570500 0.104733
762.805400 0.072537
763.040300 0.084924
763.275200 0.093440
763.510100 0.093043
763.745000 0.098530
763.980000 0.106195
764.214900 0.084173
764.449900 0.103473
764.684900 0.091747
764.919800 0.071871
765.154800 0.098123
765.389800 0.091984
765.624800 0.111649
765.859900 0.077177
766.094900 0.079725
766.329900 0.086911
766.565000 0.108779
766.800000 0.112901
767.035100 0.089566
767.270100 0.109035
767.505200 0.088976
767.740300 0.085731
767.975400 0.087357
768.210500 0.090218
768.445600 0.084076
768.680800 0.091109
768.915900 0.109960
769.151000 0.118347
769.386200 0.107991
769.621400 0.098689
769.856500 0.097637
770.091700 0.109642
770.326900 0.104181
770.562100 0.080113
770.797300 0.115233
771.032500 0.064305
771.267700 0.063915
771.503000 0.094733
771.738200 0.115885
771.973500 0.084291
772.208700 0.067221
772.444000 0.115178
772.679300 0.081158
772.914600 0.111143
773.149900 0.071991
773.385200 0.098763
773.620500 0.089030
773.855800 0.094869
774.091100 0.081217
774.326500 0.071467
774.561800 0.092948
774.797200 0.085179
775.032600 0.142699
775.267900 0.084885
775.503300 0.090781
775.738700 0.090748
775.974100 0.106041
776.209500 0.065744
776.445000 0.138283
776.680400 0.120196
776.915800 0.096002
777.151300 0.053072
777.386800 0.110846
777.622200 0.033144
777.857700 0.053487
778.093200 0.078816
778.328700 0.121003
778.564200 0.079603
778.799700 0.095864
779.035200 0.071779
779.270700 0.088270
779.506300 0.102577
779.741800 0.102519
779.977400 0.089988
780.213000 0.081091
780.448500 0.089856
780.684100 0.076398
780.919700 0.109902
781.155300 0.108908
781.390900 0.101624
781.626500 0.102475
781.862200 0.098293
782.097800 0.125533
782.333500 0.080654
782.569100 0.109734
782.804800 0.055510
783.040500 0.080229
783.276100 0.081576
783.511800 0.104165
783.747500 0.068957
783.983200 0.067178
784.219000 0.078478
784.454700 0.067021
784.690400 0.109556
784.926200 0.124405
785.161900 0.106025
785.397700 0.082023
785.633500 0.084919
785.869200 0.102036
786.105000 0.099469
786.340800 0.111235
786.576600 0.065716
786.812400 0.092924
787.048300 0.082145
787.284100 0.085482
787.519900 0.088418
787.755800 0.091517
787.991700 0.086682
788.227500 0.072266
788.463400 0.070272
788.699300 0.095496
788.935200 0.089545
789.171100 0.081539
789.407000 0.079089
789.642900 0.127952
789.878900 0.101131
790.114800 0.108282
790.350700 0.098318
790.586700 0.079927
790.822700 0.070014
791.058600 0.096520
791.294600 0.074569
791.530600 0.084892
791.766600 0.099304
792.002600 0.129288
792.238700 0.062370
792.474700 0.078722
792.710700 0.118929
792.946800 0.073558
793.182800 0.091016
793.418900 0.101804
793.655000 0.106179
793.891000 0.118109
794.127100 0.099925
794.363200 0.091710
794.599300 0.094267
794.835500 0.080620
795.071600 0.101766
795.307700 0.086797
795.543900 0.091472
795.780000 0.101781
796.016200 0.074883
796.252300 0.079490
796.488500 0.095431
796.724700 0.186553
796.960900 0.143848
797.197100 0.088730
797.433300 0.081312
797.669500 0.104714
797.905800 0.105682
798.142000 0.102174
798.378300 0.072247
798.614500 0.088401
798.850800 0.115081
799.087100 0.098387
799.323300 0.081824
799.559600 0.077793
799.795900 0.144936
800.032200 0.086020
800.268600 0.092549
800.504900 0.109514
800.741200 0.039216
800.977600 0.092378
801.213900 0.116960
801.450300 0.098488
801.686700 0.079464
801.923000 0.073777
802.159400 0.123319
802.395800 0.055589
802.632200 0.089194
802.868600 0.132449
803.105100 0.131987
803.341500 0.055513
803.577900 0.107516
803.814400 0.097207
804.050800 0.125958
804.287300 0.147522
804.523800 0.081334
804.760300 0.109086
804.996800 0.055430
805.233300 0.133653
805.469800 0.122985
805.706300 0.082569
805.942800 0.084995
806.179400 0.092702
806.415900 0.060300
806.652500 0.063278
806.889000 0.131597
807.125600 0.122469
807.362200 0.055123
807.598800 0.088094
807.835400 0.093230
808.072000 0.060061
808.308600 0.066941
808.545200 0.108774
808.781800 0.052957
809.018500 0.110260
809.255100 0.050190
809.491800 0.065784
809.728400 0.055630
809.965100 0.137064
810.201800 0.079379
810.438500 0.044021
810.675200 0.068733
810.911900 0.077295
811.148600 0.107230
811.385300 0.094551
811.622100 0.127836
811.858800 0.091674
812.095600 0.047485
812.332300 0.087243
812.569100 0.094535
812.805900 0.185818
813.042700 0.105636
813.279500 0.136665
813.516300 0.057648
813.753100 0.088791
813.989900 0.070135
814.226700 0.103551
814.463600 0.091193
814.700400 0.099314
814.937300 0.088636
815.174200 0.113051
815.411000 0.093777
815.647900 0.037901
815.884800 0.065251
816.121700 0.114850
816.358600 0.107555
816.595500 0.079736
816.832400 0.116140
817.069400 0.109547
817.306300 0.149797
817.543300 0.094334
817.780200 0.092774
818.017200 0.091135
818.254200 0.144781
818.491200 0.133253
818.728200 0.101894
818.965200 0.081055
819.202200 0.081591
819.439200 0.119532
819.676200 0.043526
819.913300 0.088100
820.150300 0.102249
820.387400 0.124801
820.624400 0.094304
820.861500 0.109596
821.098600 0.142623
821.335700 0.122128
821.572700 0.159456
821.809900 0.038195
822.047000 0.120555
822.284100 0.090187
822.521200 0.089403
822.758400 0.141969
822.995500 0.069092
823.232700 0.125036
823.469800 0.082451
823.707000 0.110379
823.944200 0.129877
824.181400 0.114102
824.418600 0.029102
824.655800 0.137319
824.893000 0.132193
825.130200 0.065129
825.367500 0.100546
825.604700 0.149567
825.841900 0.003838
826.079200 0.103750
826.316500 0.081523
826.553700 0.114513
826.791000 0.136657
827.028300 0.110777
827.265600 0.110273
827.502900 0.124508
827.740200 0.102059
827.977600 0.087553
828.214900 0.090581
828.452200 0.147289
828.689600 0.111787
828.927000 0.129887
829.164300 0.090232
829.401700 0.070042
829.639100 0.143597
829.876500 0.093812
830.113900 0.095010
830.351300 0.133879
830.588700 0.086396
830.826100 0.093657
831.063600 0.069283
831.301000 0.164321
831.538500 0.140809
831.775900 0.099977
832.013400 0.141015
832.250900 0.144473
832.488400 0.123869
832.725900 0.152278
832.963400 0.126284
833.200900 0.119539
833.438400 0.157547
833.675900 0.115760
833.913500 0.159170
834.151000 0.094227
834.388600 0.082680
834.626100 0.089714
834.863700 0.089893
835.101300 0.075795
835.338900 0.182919
835.576500 0.149439
835.814100 0.046951
836.051700 0.086409
836.289300 0.178703
836.526900 0.045129
836.764600 0.114210
837.002200 0.074539
837.239900 0.187815
837.477500 0.107144
837.715200 -0.004792
837.952900 0.155091
838.190600 0.070137
838.428300 0.099074
838.666000 0.199883
838.903700 0.179697
839.141400 0.126813
839.379100 0.107225
839.616900 0.095228
839.854600 0.088067
840.092400 0.114881
840.330200 0.016776
840.567900 0.143819
840.805700 0.087445
841.043500 0.212856
841.281300 0.020639
841.519100 0.171482
841.756900 0.062535
841.994700 0.169705
842.232600 0.314684
842.470400 0.186763
842.708200 0.045300
842.946100 0.070394
843.184000 0.051899
843.421800 0.146882
843.659700 0.112611
843.897600 0.102626
844.135500 0.196202
844.373400 0.062607
844.611300 0.017832
844.849200 0.037153
845.087200 0.117413
845.325100 0.096190
845.563100 0.057371
845.801000 0.152356
846.039000 0.279534
846.277000 -0.004245
846.514900 0.035553
846.752900 -0.071235
846.990900 0.101031
847.228900 0.044478
847.466900 0.229137
847.705000 0.411328
847.943000 -0.140265
848.181000 0.324216
848.419100 0.141018
848.657100 0.149090
848.895200 -0.024966
849.133300 0.149199
849.371300 0.179781
849.609400 -0.067529
849.847500 0.201210
850.085600 0.260617
850.323700 0.272631
850.561900 0.140075
850.800000 0.212553
851.038100 0.325583
851.276300 0.072013
851.514400 -0.018380
851.752600 0.125333
851.990800 0.081862
852.228900 0.164741
852.467100 0.132963
852.705300 0.010579
852.943500 0.123012
853.181700 0.146036
853.420000 0.162646
853.658200 0.062012
853.896400 0.188749
854.134700 0.129515
854.372900 0.139057
854.611200 0.119124
854.849500 0.133958
855.087700 0.086518
855.326000 0.122127
855.564300 0.111605
855.802600 0.147921
856.040900 0.042498
856.279200 0.141952
856.517600 0.101312
856.755900 0.036400
856.994200 0.087946
857.232600 0.114587
857.471000 0.142029
857.709300 0.050989
857.947700 0.053075
858.186100 0.239964
858.424500 0.073996
858.662900 0.099377
858.901300 0.042091
859.139700 0.127427
859.378100 0.064717
859.616600 0.078453
859.855000 0.102511
860.093500 0.153039
860.331900 0.181524
860.570400 0.214333
860.808900 0.189061
861.047300 0.093018
861.285800 0.224022
861.524300 0.334314
861.762800 0.153639
862.001300 0.235062
862.239900 0.045509
862.478400 -0.038750
862.716900 0.196026
862.955500 0.253050
863.194000 -0.027487
863.432600 0.092046
863.671200 0.071722
863.909800 0.210144
864.148300 -0.001110
864.386900 0.156378
864.625500 0.209996
864.864200 0.234950
865.102800 0.035121
865.341400 0.228509
865.580000 0.040077
865.818700 0.224169
866.057300 0.010007
866.296000 0.073897
866.534700 0.092197
866.773300 0.239495
867.012000 0.148136
867.250700 0.192972
867.489400 -0.037560
867.728100 0.103286
867.966900 0.268633
868.205600 0.141862
868.444300 0.014252
868.683100 0.115976
868.921800 0.152540
869.160600 -0.054810
869.399300 0.174647
869.638100 0.063905
869.876900 0.020735
870.115700 -0.007066
870.354500 0.193060
870.593300 0.304603
870.832100 0.203754
871.070900 0.076102
871.309700 0.126057
871.548600 0.128682
871.787400 0.134223
872.026300 0.021363
872.265100 0.087084
872.504000 0.140404
872.742900 -0.038503
872.981800 0.054198
873.220700 0.237368
873.459600 0.152214
873.698500 0.035025
873.937400 0.153261
874.176300 -0.011141
874.415300 0.107101
874.654200 0.175646
874.893200 -0.003585
875.132100 0.009495
875.371100 0.115122
875.610100 0.133995
875.849100 0.297912
876.088000 0.320503
876.327000 0.078655
876.566100 0.098688
876.805100 0.038662
877.044100 0.119168
877.283100 -0.107522
877.522200 0.020310
877.761200 0.049266
878.000300 0.207014
878.239300 0.046229
878.478400 0.141793
878.717500 0.025500
878.956600 0.183071
879.195700 0.137049
879.434800 0.008011
879.673900 0.047848
879.913000 0.081691
880.152100 0.043062
880.391300 0.250484
880.630400 0.054725
880.869600 0.072779
881.108700 0.156338
881.347900 0.125805
881.587100 0.054559
881.826200 0.037863
882.065400 0.190612
882.304600 0.003783
882.543800 0.110988
882.783100 0.126030
883.022300 0.052469
883.261500 0.106451
883.500700 0.086930
883.740000 0.004432
883.979200 0.131148
884.218500 0.027900
884.457800 0.062992
884.697100 0.001992
884.936300 0.181946
885.175600 0.085289
885.414900 0.132363
885.654200 0.142294
885.893600 0.097914
886.132900 0.055403
886.372200 0.105806
886.611600 -0.103904
886.850900 0.182749
887.090300 0.079304
887.329600 0.140830
887.569000 0.165697
887.808400 0.051929
888.047800 -0.134434
888.287200 0.113171
888.526600 0.172159
888.766000 0.119440
889.005400 0.156388
889.244800 0.082943
889.484300 0.097006
889.723700 0.066793
889.963200 0.147701
890.202600 0.140105
890.442100 0.152321
890.681600 0.255693
890.921100 0.361417
891.160600 0.117075
891.400100 0.216949
891.639600 0.232472
891.879100 -0.004688
892.118600 0.169506
892.358100 0.006466
892.597700 0.167466
892.837200 0.232211
893.076800 0.145552
893.316300 0.220058
893.555900 0.167132
893.795500 0.153174
894.035100 0.105210
894.274700 0.226440
894.514300 0.046943
894.753900 -0.052373
894.993500 0.196366
895.233100 0.011017
895.472700 0.140354
895.712400 0.324900
895.952000 0.043566
896.191700 0.123027
896.431400 0.122897
896.671000 0.149542
896.910700 0.027137
897.150400 0.173968
897.390100 0.063004
897.629800 0.261498
897.869500 -0.014593
898.109200 -0.087336
898.348900 0.161299
898.588700 0.161685
898.828400 0.174100
899.068200 0.116696
899.307900 0.212423
899.547700 0.227403
899.787500 0.170608
900.027200 -0.055500
900.267000 0.366306
900.506800 0.186605
900.746600 0.200070
900.986400 0.028172
901.226300 0.136724
901.466100 0.203233
901.705900 0.228014
901.945800 0.194631
902.185600 0.087758
902.425500 0.235179
902.665400 0.069402
902.905200 0.198924
903.145100 0.261836
903.385000 0.161789
903.624900 0.162243
903.864800 0.180853
904.104700 0.063119
904.344600 0.199580
904.584600 0.015170
904.824500 0.191698
905.064400 0.025989
905.304400 0.087084
905.544400 0.108120
905.784300 0.311995
906.024300 0.187549
906.264300 0.136852
906.504300 0.205879
906.744300 0.172092
906.984300 0.058929
907.224300 0.074290
907.464300 0.419969
907.704300 0.010021
907.944400 0.067225
908.184400 0.164464
908.424500 0.167266
908.664500 0.123052
908.904600 0.055197
909.144700 0.128224
909.384700 0.238145
909.624800 0.140060
909.864900 0.008537
910.105000 0.173091
910.345200 0.046071
910.585300 0.131200
910.825400 0.329271
911.065500 0.100424
911.305700 0.154390
911.545800 -0.026996
911.786000 0.180822
912.026200 0.170579
912.266300 0.322796
912.506500 0.194248
912.746700 0.096395
912.986900 0.057400
913.227100 -0.007168
913.467300 0.136373
913.707500 0.315429
913.947800 0.308628
914.188000 0.146642
914.428300 0.207760
914.668500 0.462229
914.908800 0.325512
915.149000 0.241873
915.389300 0.354020
915.629600 0.644601
915.869900 0.351580
916.110200 0.147740
916.350500 0.012961
916.590800 0.117303
916.831100 0.091026
917.071400 0.087542
917.311800 0.080182
917.552100 0.208269
917.792500 -0.001645
918.032800 0.230795
918.273200 0.339004
918.513600 0.346253
918.753900 0.169513
918.994300 0.300493
919.234700 0.407093
919.475100 0.034420
919.715500 0.340144
919.956000 0.295255
920.196400 0.164137
920.436800 -0.009492
920.677300 -0.035600
920.917700 0.124110
921.158200 0.207313
921.398600 -0.007890
921.639100 0.114011
921.879600 -0.271750
922.120100 -0.143863
922.360600 0.174400
922.601100 0.217386
922.841600 0.123330
923.082100 0.167003
923.322600 0.126145
923.563100 0.193646
923.803700 0.224689
924.044200 0.088563
924.284800 0.016139
924.525400 0.273470
924.765900 0.336478
925.006500 -0.005967
925.247100 0.119012
925.487700 0.139593
925.728300 0.300582
925.968900 0.130001
926.209500 -0.029286
926.450100 0.075405
926.690800 0.191161
926.931400 0.539040
927.172000 0.558060
927.412700 0.204434
927.653300 0.077087
927.894000 0.071011
928.134700 0.686779
928.375400 0.113292
928.616100 0.143574
928.856800 0.382724
929.097500 0.096223
929.338200 0.163895
929.578900 0.348053
929.819600 0.222119
930.060400 -0.048810
930.301100 3.376577
930.541900 0.468984
930.782600 0.197038
931.023400 0.232930
931.264200 0.077118
931.504900 0.160793
931.745700 0.113555
931.986500 -0.039884
932.227300 0.191260
932.468100 0.391279
932.708900 0.488031
932.949800 0.195158
933.190600 1.469471
933.431400 0.224420
933.672300 -0.005331
933.913100 0.285155
934.154000 0.090188
934.394900 -0.050843
934.635800 -0.005630
934.876600 0.134625
935.117500 -0.055524
935.358400 0.123325
935.599300 3.389875
935.840300 0.134160
936.081200 0.060344
936.322100 -0.090998
936.563000 0.358263
936.804000 -0.025826
937.044900 -0.001145
937.285900 -0.296957
937.526900 0.017729
937.767800 0.533788
938.008800 0.249043
938.249800 0.537376
938.490800 -0.036987
938.731800 0.793128
938.972800 0.548672
939.213800 0.219434
939.454900 0.140829
939.695900 0.391248
939.936900 0.242468
940.178000 3.231724
940.419000 3.132900
940.660100 0.374186
940.901200 1.717195
941.142200 2.913814
941.383300 3.372728
941.624400 0.448138
941.865500 0.345101
942.106600 0.247193
942.347700 -0.091265
942.588900 0.606449
942.830000 3.146128
943.071100 -0.163578
943.312300 1.001371
943.553400 -0.167598
943.794600 0.755965
944.035700 0.240529
944.276900 -0.098941
944.518100 1.008131
944.759300 0.198238
945.000500 1.505150
945.241700 0.273931
945.482900 3.272770
945.724100 0.363324
945.965300 0.408975
946.206600 -0.107200
946.447800 -0.024448
946.689100 0.139859
946.930300 0.524427
947.171600 0.548855
947.412800 0.267260
947.654100 0.162593
947.895400 3.272538
948.136700 0.230498
948.378000 0.059938
948.619300 0.270699
948.860600 0.141765
949.101900 0.283876
949.343300 0.935214
949.584600 0.381532
949.825900 0.212177
950.067300 0.560571
950.308600 -0.055921
950.550000 0.162395
950.791400 0.024376
951.032700 -0.150514
951.274100 -0.092413
951.515500 0.337051
951.756900 0.883213
951.998300 0.879531
952.239800 0.069073
952.481200 0.024252
952.722600 0.107247
952.964000 0.249518
953.205500 -0.089643
953.446900 -0.243701
953.688400 0.228784
953.929900 0.481065
954.171300 1.770852
954.412800 0.641330
954.654300 0.756520
954.895800 -0.067428
955.137300 -0.438419
955.378800 0.115423
955.620300 0.015713
955.861800 0.039951
956.103400 -0.068595
956.344900 0.265946
956.586500 -0.001398
956.828000 0.142769
957.069600 0.043818
957.311100 -0.124355
957.552700 3.389875
957.794300 -0.166268
958.035900 -0.191706
958.277500 2.826723
958.519100 -0.031045
958.760700 3.177248
959.002300 -0.293885
959.243900 -0.151505
959.485600 0.195921
959.727200 -0.020161
959.968800 -0.137969
960.210500 -0.195906
960.452200 2.840733
960.693800 -0.297352
960.935500 0.000000
961.177200 -0.119096
961.418900 -0.304395
961.660600 0.213272
961.902300 3.174641
962.144000 2.673021
962.385700 2.791691
962.627400 3.115278
962.869200 2.719331
963.110900 1.079612
963.352700 -0.002503
963.594400 0.175167
963.836200 0.353162
964.077900 1.064399
964.319700 -0.113059
964.561500 0.410244
964.803300 0.911363
965.045100 2.945961
965.286900 -0.123709
965.528700 -0.011787
965.770500 0.079988
966.012300 0.247586
966.254200 0.145287
966.496000 0.162642
966.737900 0.705767
966.979700 0.844295
967.221600 -0.329377
967.463400 0.543087
967.705300 3.152288
967.947200 -0.455812
968.189100 -0.658835
968.431000 0.919629
968.672900 0.174792
968.914800 0.137544
969.156700 2.745075
969.398700 -0.386775
969.640600 2.245513
969.882500 0.596545
970.124500 -0.351155
970.366400 0.213003
970.608400 3.042969
970.850400 1.086868
971.092300 2.890421
971.334300 2.990339
971.576300 0.128968
971.818300 0.194530
972.060300 0.625207
972.302300 0.719986
972.544300 0.517188
972.786400 1.011663
973.028400 3.206826
973.270400 0.326012
973.512500 1.459177
973.754500 0.852522
973.996600 2.994757
974.238700 0.281480
974.480700 -0.424827
974.722800 0.114910
974.964900 2.859739
975.207000 0.714314
975.449100 2.338456
975.691200 0.231307
975.933300 -0.410174
976.175500 -3.040207
976.417600 0.947349
976.659700 -0.074067
976.901900 -0.416623
977.144000 0.488417
977.386200 2.745075
977.628300 0.088889
977.870500 3.139249
978.112700 -0.201022
978.354900 -0.296643
978.597100 2.975891
978.839300 0.158384
979.081500 0.246633
979.323700 -3.056524
979.565900 0.638395
979.808200 0.899802
980.050400 0.102817
980.292600 3.008600
980.534900 0.483921
980.777100 2.971276
981.019400 2.752816
981.261700 3.201124
981.504000 0.547485
981.746200 -0.941653
981.988500 3.013259
982.230800 -0.037108
982.473100 0.245134
982.715500 0.431259
982.957800 2.799341
983.200100 0.053323
983.442400 2.610660
983.684800 2.799341
983.927100 1.267172
984.169500 0.706673
984.411800 0.978267
984.654200 2.760422
984.896600 -0.286802
985.139000 -1.509123
985.381400 3.229170
985.623800 3.218010
985.866200 0.483174
986.108600 -2.227887
986.351000 0.247296
986.593400 2.820201
986.835800 3.142702
987.078300 2.682145
987.320700 0.071872
987.563200 2.700704
987.805600 2.414973
988.048100 0.094040
988.290600 0.436140
988.533100 0.000000
988.775600 0.054115
989.018000 1.492028
989.260500 0.118812
989.503100 -2.755875
989.745600 2.123852
989.988100 0.000000
990.230600 0.393454
990.473200 2.935507
990.715700 0.728762
990.958200 2.523746
991.200800 0.165291
991.443400 -3.156852
991.685900 -0.543705
991.928500 0.000000
992.171100 2.158362
992.413700 0.570712
992.656300 0.558523
992.898900 2.866287
993.141500 0.174282
993.384100 0.583852
993.626700 0.656021
993.869400 0.093905
994.112000 2.806180
994.354700 0.116803
994.597300 0.290622
994.840000 0.000000
995.082600 -0.205735
995.325300 2.269513
995.568000 0.281651
995.810700 -0.777070
996.053400 2.866287
996.296100 -0.001934
996.538800 0.303397
996.781500 3.171141
997.024200 -0.388533
997.267000 2.791691
997.509700 3.186674
997.752400 0.844359
997.995200 0.295278
998.237900 0.035050
998.480700 -0.013753
998.723500 -3.005609
998.966200 2.956168
999.209000 0.000000
999.451800 0.088491
999.694600 3.025715
999.937400 2.318063
1000.180200 2.913284
1000.423000 3.101403
1000.665900 0.804145
1000.908700 2.396199
1001.151500 2.727541
1001.394400 2.745075
1001.637200 0.185806
1001.880100 0.778151
1002.123000 2.840106
1002.365800 2.599883
1002.608700 2.357935
1002.851600 0.246766
1003.094500 0.243751
1003.337400 2.217484
1003.580300 -3.023252
1003.823200 2.414973
1004.066100 2.945961
1004.309100 1.397112
1004.552000 3.008600
1004.794900 -0.289781
1005.037900 0.406734
1005.280800 0.440692
1005.523800 0.216007
1005.766700 2.783904
1006.009700 3.047275
1006.252700 0.000000
1006.495700 0.787607
1006.738700 -1.924279
1006.981700 0.158362
1007.224700 2.653213
1007.467700 -0.429150
1007.710700 2.610660
1007.953800 1.221849
1008.196800 1.113147
1008.439800 0.198834
1008.682900 2.691965
1008.925900 1.775385
1009.169000 0.959949
1009.412100 0.000000
1009.655100 2.008600
1009.898200 0.441709
1010.141300 2.432969
1010.384400 -0.059780
1010.627500 -0.052916
1010.870600 -0.051186
1011.113700 3.086360
1011.356800 2.820201
1011.600000 1.591065
1011.843100 -0.223013
1012.086300 -2.025306
1012.329400 0.352317
1012.572600 -2.170262
1012.815700 2.783904
1013.058900 -3.031812
1013.302100 0.400747
1013.545200 2.960946
1013.788400 1.183947
1014.031600 -2.815578
1014.274800 0.904920
1014.518000 3.161967
1014.761300 -0.065750
1015.004500 -3.005609
1015.247700 2.940516
1015.490900 0.000000
1015.734200 0.243288
1015.977400 0.084761
1016.220700 0.000000
1016.464000 2.853090
1016.707200 2.190332
1016.950500 2.378398
1017.193800 2.907949
1017.437100 2.562293
1017.680400 -0.131181
1017.923700 -0.096726
1018.167000 0.316325
1018.410300 0.319170
1018.653600 -0.255567
1018.896900 3.021603
1019.140300 3.030195
1019.383600 1.039509
1019.627000 0.013835
1019.870300 0.295121
1020.113700 0.558242
1020.357100 2.575188
1020.600400 2.853698
1020.843800 3.090258
1021.087200 3.287130
1021.330600 -3.072617
1021.574000 0.746494
1021.817400 0.000000
1022.060800 -2.987219
1022.304200 0.000000
1022.547700 2.902003
1022.791100 2.432969
1023.034500 2.812913
