# Wavelength	Absorbance
197.780200 -0.115795
197.984200 2.907949
198.188200 3.093772
198.392200 0.020332
198.596300 0.058136
198.800300 2.318063
199.004400 -0.391501
199.208500 0.098390
199.412600 1.572581
199.616800 2.768638
199.820900 -0.642505
200.025100 0.012843
200.229200 2.463893
200.433400 3.008600
200.637600 0.431208
200.841800 1.004376
201.046100 0.210641
201.250300 3.142702
201.454600 0.469613
201.658900 3.051153
201.863100 0.000440
202.067400 -0.152331
202.271800 0.631374
202.476100 2.896526
202.680500 0.253338
202.884800 2.980458
203.089200 0.089653
203.293600 0.171044
203.498000 0.646112
203.702400 2.336460
203.906900 -0.880437
204.111300 -1.568202
204.315800 2.728354
204.520300 0.311679
204.724800 2.587711
204.929300 -0.931364
205.133800 0.081356
205.338400 0.327441
205.543000 3.171434
205.747500 0.529857
205.952100 -0.142808
206.156700 1.830508
206.361400 0.000000
206.566000 2.187521
206.770600 3.168203
206.975300 -0.019401
207.180000 -1.967147
207.384700 -0.264769
207.589400 -3.300813
207.794100 2.480007
207.998900 -0.255157
208.203600 0.354329
208.408400 -0.004160
208.613200 2.820201
208.818000 0.495544
209.022800 2.414973
209.227600 2.820201
209.432500 2.907949
209.637300 2.752816
209.842200 -0.279565
210.047100 2.798651
210.252000 -0.848380
210.456900 3.086360
210.661800 0.457683
210.866800 0.837657
211.071800 0.642089
211.276700 0.173149
211.481700 0.838769
211.686700 -0.165502
211.891800 2.480007
212.096800 3.336260
212.301800 2.890421
212.506900 3.209783
212.712000 2.965672
212.917100 3.226342
213.122200 2.866287
213.327300 0.355788
213.532500 0.000000
213.737600 -0.107995
213.942800 1.447158
214.148000 0.033749
214.353200 0.000000
214.558400 -0.211739
214.763600 0.330791
214.968900 2.896526
215.174100 3.104487
215.379400 0.000000
215.584700 2.846955
215.790000 3.021603
215.995300 2.820201
216.200700 0.806180
216.406000 2.902003
216.611400 -0.163568
216.816800 2.833784
217.022200 -0.130103
217.227600 0.173607
217.433000 2.536558
217.638400 0.894987
217.843900 0.126672
218.049400 0.000000
218.254800 3.275081
218.460300 3.008600
218.665900 0.148451
218.871400 1.234517
219.076900 2.990339
219.282500 2.960946
219.488100 0.526137
219.693600 2.783904
219.899200 0.428163
220.104900 3.055378
220.310500 0.590161
220.516100 0.000000
220.721800 2.872156
220.927500 3.071145
221.133200 2.902003
221.338900 0.588136
221.544600 2.846955
221.750300 1.420127
221.956100 2.907411
222.161800 2.338456
222.367600 0.646112
222.573400 -0.168792
222.779200 0.000000
222.985000 0.000000
223.190900 3.017451
223.396700 -0.408613
223.602600 2.632457
223.808500 2.736397
224.014400 0.770913
224.220300 2.935507
224.426200 2.719331
224.632200 2.727541
224.838100 -0.156074
225.044100 2.653213
225.250100 0.550228
225.456100 2.653213
225.662100 2.632457
225.868100 2.127105
226.074200 0.084683
226.280200 -2.797960
226.486300 0.694667
226.692400 0.000000
226.898500 -0.034047
227.104600 0.726265
227.310700 3.111934
227.516900 2.833784
227.723000 -0.339847
227.929200 3.252853
228.135400 3.074816
228.341600 0.159816
228.547800 -0.077882
228.754100 3.003891
228.960300 -0.678249
229.166600 -2.429752
229.372900 0.190278
229.579100 0.369180
229.785500 0.791691
229.991800 -0.918330
230.198100 2.682145
230.404500 -0.557350
230.610800 3.003891
230.817200 0.000000
231.023600 2.890421
231.230000 -0.261929
231.436400 -0.089756
231.642900 -0.158870
231.849300 2.791691
232.055800 -0.803645
232.262300 0.233628
232.468800 -0.040959
232.675300 0.153793
232.881800 2.599883
233.088400 2.745075
233.294900 2.550228
233.501500 2.902003
233.708100 -2.000000
233.914700 -0.301452
234.121300 0.000000
234.327900 -0.301756
234.534600 2.682145
234.741300 0.299645
234.947900 2.736397
235.154600 0.566721
235.361300 0.574769
235.568000 0.027699
235.774800 2.662758
235.981500 2.562293
236.188300 0.000000
236.395100 2.999565
236.601800 -2.313867
236.808700 -0.004256
237.015500 0.243751
237.222300 -0.275024
237.429200 3.265290
237.636000 3.042969
237.842900 1.851258
238.049800 0.092480
238.256700 -0.064458
238.463600 3.063333
238.670600 -0.311357
238.877500 3.161967
239.084500 0.000000
239.291500 0.628647
239.498500 2.245513
239.705500 2.643453
239.912500 1.845098
240.119500 -1.149282
240.326600 2.190332
240.533700 0.000000
240.740700 -0.280282
240.947800 0.207150
241.154900 1.059185
241.362100 0.510531
241.569200 0.139697
241.776400 0.846842
241.983500 0.783904
242.190700 0.294073
242.397900 0.000000
242.605100 2.537819
242.812400 -0.163568
243.019600 3.242293
243.226900 -0.102127
243.434100 0.599417
243.641400 2.736397
243.848700 3.012837
244.056000 0.000000
244.263400 2.653213
244.470700 1.082785
244.678100 0.003969
244.885400 2.945469
245.092800 0.161007
245.300200 2.357935
245.507600 0.973982
245.715100 0.640177
245.922500 0.943339
246.130000 1.230449
246.337500 0.228348
246.544900 2.396199
246.752400 3.362859
246.960000 3.165244
247.167500 1.063085
247.375000 -2.620136
247.582600 3.025715
247.790200 1.845098
247.997800 0.274436
248.205400 3.262925
248.413000 2.872739
248.620600 0.644756
248.828300 0.033424
249.035900 3.030600
249.243600 -0.086354
249.451300 3.282396
249.659000 3.192567
249.866700 3.168203
250.074500 0.140338
250.282200 3.189490
250.490000 -0.230765
250.697800 2.846955
250.905600 0.265163
251.113400 2.929930
251.321200 2.736397
251.529000 -0.385852
251.736900 0.536062
251.944700 3.186674
252.152600 0.477344
252.360500 2.710117
252.568400 -0.292449
252.776300 2.397940
252.984300 -0.160579
253.192200 2.985426
253.400200 2.935003
253.608200 0.836455
253.816200 0.442917
254.024200 1.668619
254.232200 2.414973
254.440200 -1.204120
254.648300 -0.440138
254.856400 2.701568
255.064400 -0.385693
255.272500 3.097604
255.480600 -0.023894
255.688800 0.000000
255.896900 1.132568
256.105100 0.516984
256.313200 2.752816
256.521400 2.827369
256.729600 0.384241
256.937800 3.171434
257.146000 2.902003
257.354300 -2.429752
257.562500 0.469320
257.770800 -2.889862
257.979100 0.059895
258.187400 2.833784
258.395700 3.082785
258.604000 3.034628
258.812400 2.919078
259.020700 3.026125
259.229100 0.228668
259.437500 2.975891
259.645900 0.083438
259.854300 2.878522
260.062700 3.125481
260.271100 2.621176
260.479600 0.329707
260.688100 2.562293
260.896500 0.214630
261.105000 -0.609933
261.313500 0.265150
261.522100 3.142702
261.730600 1.048334
261.939200 -0.301893
262.147700 0.633869
262.356300 -0.094403
262.564900 0.142107
262.773500 2.907411
262.982200 0.415193
263.190800 0.000000
263.399500 3.206826
263.608100 0.173913
263.816800 0.040311
264.025500 2.396199
264.234200 -0.522879
264.442900 2.053078
264.651700 3.097604
264.860400 2.662758
265.069200 3.051153
265.278000 0.990339
265.486800 0.454753
265.695600 2.450249
265.904400 -0.275233
266.113300 -0.226192
266.322100 0.198229
266.531000 2.294466
266.739900 -0.813422
266.948800 3.125806
267.157700 0.310764
267.366600 0.100172
267.575500 0.532169
267.784500 2.550228
267.993500 2.994757
268.202400 2.970812
268.411400 0.869314
268.620500 2.761176
268.829500 1.571854
269.038500 2.123852
269.247600 0.722793
269.456600 2.008600
269.665700 2.965672
269.874800 2.907411
270.083900 0.574031
270.293100 -2.767898
270.502200 -0.003594
270.711400 -0.140067
270.920500 -0.334123
271.129700 0.304185
271.338900 3.115611
271.548100 0.609180
271.757300 0.035878
271.966600 2.890421
272.175800 3.277609
272.385100 0.129119
272.594400 0.970812
272.803700 -0.048805
273.013000 2.799341
273.222300 2.994757
273.431600 0.135455
273.641000 3.209783
273.850400 2.701568
274.059700 2.945961
274.269100 0.747117
274.478500 2.950851
274.688000 0.789103
274.897400 2.866287
275.106900 0.022863
275.316300 3.055378
275.525800 0.637319
275.735300 -2.492760
275.944800 0.965672
276.154300 -0.189722
276.363900 0.656811
276.573400 0.140268
276.783000 0.813384
276.992600 2.846955
277.202200 3.047275
277.411800 -0.180187
277.621400 2.727541
277.831000 3.118595
278.040700 0.243038
278.250300 -0.081257
278.460000 0.621640
278.669700 0.140980
278.879400 -0.588220
279.089100 2.691965
279.298900 0.573904
279.508600 -0.004074
279.718400 0.916744
279.928100 0.000000
280.137900 1.063085
280.347700 2.632457
280.557600 1.197518
280.767400 3.039017
280.977200 0.032678
281.187100 0.000000
281.397000 -0.084155
281.606900 0.000000
281.816800 0.122499
282.026700 0.275149
282.236600 0.057632
282.446600 -0.060248
282.656500 -1.897627
282.866500 2.791691
283.076500 2.338456
283.286500 3.115278
283.496500 0.600847
283.706500 0.095167
283.916600 2.866287
284.126600 0.845098
284.336700 2.966142
284.546800 -0.450512
284.756900 3.025715
284.967000 0.403766
285.177100 -0.057746
285.387300 0.000000
285.597400 0.249136
285.807600 2.127105
286.017800 0.652772
286.228000 -2.267172
286.438200 3.171434
286.648400 -0.181372
286.858700 3.265290
287.068900 2.760422
287.279200 2.846955
287.489500 2.414973
287.699800 0.269104
287.910100 2.621176
288.120400 1.283847
288.330800 2.220108
288.541100 1.589526
288.751500 2.217484
288.961900 0.045683
289.172300 -2.429752
289.382700 3.074816
289.593100 0.048180
289.803500 0.000000
290.014000 1.217030
290.224500 0.246940
290.434900 0.000000
290.645400 -0.093468
290.855900 2.653213
291.066500 -0.021780
291.277000 2.744293
291.487500 0.127164
291.698100 2.768638
291.908700 -0.473788
292.119300 -0.193183
292.329900 -0.143139
292.540500 -0.206145
292.751100 2.956168
292.961800 0.000000
293.172400 3.171434
293.383100 -2.574031
293.593800 0.082004
293.804500 0.139518
294.015200 0.245658
294.226000 0.000000
294.436700 2.799341
294.647500 1.662167
294.858200 3.074816
295.069000 0.190274
295.279800 -0.075848
295.490600 -2.934498
295.701500 0.291287
295.912300 0.284826
296.123200 0.585915
296.334000 0.452160
296.544900 1.101965
296.755800 3.220892
296.966700 2.872156
297.177700 2.945961
297.388600 1.037376
297.599500 2.269513
297.810500 3.090258
298.021500 0.431549
298.232500 3.155640
298.443500 1.690196
298.654500 0.276078
298.865600 3.125806
299.076600 -0.203861
299.287700 0.000000
299.498800 3.201124
299.709900 -0.082524
299.921000 1.082229
300.132100 0.357379
300.343200 0.628972
300.554400 2.769377
300.765500 -0.254190
300.976700 0.000000
301.187900 3.104487
301.399100 -0.249001
301.610300 3.129368
301.821500 0.790707
302.032800 3.104487
302.244100 0.661425
302.455300 0.051109
302.666600 0.237259
302.877900 0.959170
303.089200 2.357935
303.300600 3.209783
303.511900 0.508414
303.723300 0.461881
303.934600 2.884795
304.146000 -1.549354
304.357400 2.432969
304.568800 -0.288495
304.780300 3.192289
304.991700 2.784617
305.203100 2.271842
305.414600 3.198382
305.626100 2.294466
305.837600 1.201124
306.049100 -0.506194
306.260600 3.051153
306.472200 2.245513
306.683700 -0.140043
306.895300 -0.666856
307.106900 3.231724
307.318400 3.034628
307.530100 3.165244
307.741700 2.806180
307.953300 0.839476
308.165000 0.000000
308.376600 0.425812
308.588300 3.242293
308.800000 0.132769
309.011700 0.402864
309.223400 0.357909
309.435100 1.246129
309.646900 -0.154211
309.858600 0.902708
310.070400 3.129045
310.282200 1.447158
310.494000 3.287130
310.705800 3.168203
310.917600 3.047275
311.129500 2.840106
311.341300 3.296446
311.553200 3.180413
311.765100 0.144932
311.977000 3.142702
312.188900 3.122544
312.400800 0.947814
312.612700 3.012837
312.824700 0.326833
313.036600 -0.056143
313.248600 0.690560
313.460600 2.999565
313.672600 3.275081
313.884600 3.086360
314.096700 2.599883
314.308700 3.475962
314.520800 3.104828
314.732800 0.294889
314.944900 3.146128
315.157000 0.450106
315.369200 0.535011
315.581300 3.082785
315.793400 -0.502124
316.005600 3.226342
316.217700 3.168203
316.429900 1.095422
316.642100 3.168203
316.854300 0.295812
317.066600 1.463445
317.278800 0.755327
317.491100 3.192289
317.703300 1.121416
317.915600 0.258223
318.127900 1.089734
318.340200 3.097604
318.552500 3.255273
318.764900 0.299771
318.977200 2.233472
319.189600 3.030195
319.401900 3.427324
319.614300 3.245019
319.826700 3.192289
320.039200 3.358886
320.251600 0.603574
320.464000 3.336260
320.676500 2.061170
320.889000 2.465383
321.101400 0.187221
321.313900 0.209553
321.526500 1.249628
321.739000 3.376577
321.951500 0.517696
322.164100 3.132580
322.376600 0.305111
322.589200 1.599431
322.801800 0.241764
323.014400 3.360972
323.227000 0.180817
323.439700 1.007681
323.652300 3.471292
323.865000 0.657078
324.077700 0.896296
324.290400 0.280479
324.503100 0.433604
324.715800 3.399154
324.928500 3.425697
325.141200 0.954422
325.354000 3.583765
325.566800 3.389875
325.779600 0.619236
325.992400 0.449606
326.205200 0.189815
326.418000 3.474362
326.630800 3.581495
326.843700 3.659250
327.056600 0.475539
327.269400 3.416973
327.482300 3.531990
327.695200 0.864825
327.908200 0.573897
328.121100 3.453930
328.334000 3.554126
328.547000 0.868791
328.760000 1.287856
328.973000 3.578983
329.186000 3.564311
329.399000 0.711116
329.612000 3.715669
329.825100 3.485153
330.038100 3.534534
330.251200 3.572872
330.464300 0.611802
330.677400 0.770380
330.890500 0.553543
331.103600 1.064071
331.316700 3.641970
331.529900 3.658298
331.743100 3.583879
331.956200 1.041203
332.169400 3.577836
332.382600 3.520876
332.595900 3.740600
332.809100 1.175014
333.022300 3.595606
333.235600 3.633468
333.448900 3.655235
333.662200 1.011686
333.875500 1.352464
334.088800 3.518251
334.302100 3.740521
334.515400 3.647089
334.728800 3.641871
334.942200 3.626956
335.155500 0.343451
335.368900 3.756864
335.582300 3.640879
335.795800 3.676968
336.009200 3.743823
336.222700 3.666237
336.436100 3.725258
336.649600 3.795949
336.863100 2.107851
337.076600 0.716628
337.290100 1.385362
337.503600 3.672098
337.717200 0.976101
337.930700 1.041475
338.144300 3.781037
338.357900 0.388649
338.571500 3.715669
338.785100 3.703205
338.998700 3.739731
339.212400 3.815312
339.426000 0.914185
339.639700 3.667266
339.853300 0.623518
340.067000 3.741388
340.280700 0.790622
340.494500 3.790074
340.708200 3.745543
340.921900 3.796644
341.135700 3.715669
341.349500 3.731266
341.563300 3.781827
341.777100 1.005849
341.990900 3.831166
342.204700 3.816042
342.418500 3.869232
342.632400 2.626340
342.846300 1.087885
343.060100 1.051549
343.274000 1.125199
343.487900 3.871748
343.701900 3.795185
343.915800 0.995062
344.129700 1.034133
344.343700 0.980047
344.557700 3.886829
344.771700 3.809694
344.985700 2.016875
345.199700 3.834484
345.413700 2.704794
345.627700 1.163196
345.841800 2.107093
346.055900 3.854124
346.269900 1.117365
346.484000 3.898615
346.698100 0.771073
346.912300 3.850340
347.126400 1.171212
347.340600 3.899164
347.554700 1.362126
347.768900 3.886321
347.983100 2.178630
348.197300 3.889246
348.411500 1.333096
348.625700 3.866760
348.840000 1.377477
349.054200 3.926085
349.268500 1.311415
349.482800 3.888011
349.697100 1.373860
349.911400 3.877832
350.125700 3.910571
350.340000 1.445108
350.554400 0.865286
350.768700 1.100562
350.983100 1.765532
351.197500 3.889246
351.411900 1.201249
351.626300 1.203638
351.840700 0.997830
352.055200 2.727846
352.269600 3.959471
352.484100 1.251014
352.698600 3.990072
352.913100 0.941650
353.127600 3.993348
353.342100 0.927077
353.556600 1.211524
353.771200 4.007534
353.985800 3.943643
354.200300 3.930898
354.414900 3.981093
354.629500 1.512691
354.844100 3.994273
355.058800 3.971879
355.273400 3.971369
355.488100 3.989138
355.702700 1.724276
355.917400 3.938920
356.132100 4.015527
356.346800 3.982000
356.561500 0.983175
356.776300 3.974327
356.991000 1.000431
357.205800 2.783144
357.420600 1.098340
357.635300 3.982045
357.850100 4.018617
358.065000 3.991935
358.279800 0.902092
358.494600 3.959995
358.709500 4.012879
358.924300 3.975799
359.139200 1.886927
359.354100 1.253402
359.569000 4.007534
359.783900 3.987264
359.998900 0.765454
360.213800 1.557549
360.428800 2.504416
360.643800 3.982497
360.858700 3.960946
361.073700 1.272151
361.288800 4.042142
361.503800 4.026452
361.718800 1.243917
361.933900 4.009323
362.148900 4.016866
362.364000 1.446938
362.579100 4.062845
362.794200 4.002986
363.009300 1.391009
363.224500 1.636755
363.439600 4.024280
363.654800 4.034989
363.869900 4.028164
364.085100 4.019947
364.300300 0.917260
364.515500 4.049102
364.730800 4.062845
364.946000 4.055608
365.161200 4.048325
365.376500 4.086360
365.591800 1.413330
365.807100 1.446371
366.022400 4.056447
366.237700 1.436547
366.453000 1.063949
366.668400 4.089375
366.883700 0.889574
367.099100 0.862514
367.314500 0.905842
367.529900 4.111531
367.745300 4.114678
367.960700 2.521173
368.176100 4.093071
368.391600 1.504155
368.607000 1.586530
368.822500 1.798033
369.038000 4.150173
369.253500 4.100405
369.469000 1.111306
369.684500 4.136974
369.900100 4.150787
370.115600 4.067926
370.331200 1.196389
370.546800 4.104009
370.762400 4.131266
370.978000 4.107990
371.193600 0.949014
371.409200 4.124798
371.624900 1.166391
371.840500 1.499887
372.056200 1.290083
372.271900 1.248648
372.487600 1.065239
372.703300 4.129915
372.919000 1.135750
373.134800 1.051667
373.350500 1.559603
373.566300 1.556942
373.782000 4.160709
373.997800 1.357253
374.213600 1.074516
374.429400 4.167613
374.645300 4.204906
374.861100 2.015029
375.077000 1.366660
375.292800 4.182329
375.508700 0.944600
375.724600 1.172363
375.940500 1.038278
376.156400 4.224455
376.372400 4.242367
376.588300 4.218667
376.804300 1.382240
377.020300 2.032737
377.236200 1.380955
377.452200 4.269816
377.668200 1.327121
377.884300 4.260358
378.100300 1.278293
378.316400 4.291879
378.532400 4.271028
378.748500 4.301356
378.964600 1.529264
379.180700 4.308394
379.396800 1.373213
379.612900 4.277861
379.829100 1.153058
380.045200 1.395898
380.261400 1.277769
380.477600 4.319085
380.693800 1.344803
380.910000 1.179470
381.126200 0.930384
381.342400 1.638718
381.558700 1.728135
381.774900 1.932581
381.991200 4.304318
382.207500 2.231882
382.423800 1.260597
382.640100 4.341553
382.856400 4.341336
383.072800 2.052330
383.289100 4.351042
383.505500 1.288963
383.721900 2.135598
383.938200 4.339471
384.154600 4.345099
384.371100 1.816641
384.587500 1.954340
384.803900 4.366890
385.020400 1.490405
385.236800 2.000306
385.453300 3.170188
385.669800 4.340702
385.886300 1.483373
386.102800 4.360120
386.319400 1.528437
386.535900 1.104331
386.752500 4.388581
386.969000 4.367673
387.185600 1.522646
387.402200 2.185366
387.618800 2.637145
387.835500 4.396356
388.052100 1.387931
388.268700 4.405654
388.485400 1.525389
388.702100 1.491145
388.918800 2.135210
389.135500 2.107177
389.352200 1.072819
389.568900 1.666755
389.785600 1.446165
390.002400 4.385195
390.219200 1.706967
390.435900 4.410828
390.652700 1.508877
390.869500 4.427064
391.086300 2.670438
391.303200 1.507055
391.520000 1.288859
391.736900 4.423459
391.953700 1.353566
392.170600 1.218944
392.387500 2.465576
392.604400 1.451782
392.821300 1.198959
393.038300 4.488325
393.255200 1.302528
393.472200 1.471891
393.689100 1.539149
393.906100 1.597446
394.123100 1.018188
394.340100 1.598893
394.557200 1.181161
394.774200 1.426416
394.991200 1.163445
395.208300 1.248656
395.425400 1.242603
395.642500 1.774888
395.859600 1.292134
396.076700 1.179150
396.293800 1.226949
396.510900 1.379109
396.728100 0.944135
396.945300 1.428743
397.162400 1.162289
397.379600 1.058650
397.596800 0.962750
397.814000 1.065945
398.031300 0.886330
398.248500 0.910736
398.465800 0.894903
398.683000 0.794013
398.900300 0.897716
399.117600 0.969958
399.334900 1.119211
399.552200 1.216915
399.769600 0.946974
399.986900 0.908847
400.204300 0.877871
400.421600 0.984702
400.639000 1.068635
400.856400 0.921904
401.073800 0.852643
401.291200 0.824242
401.508700 0.963088
401.726100 0.964512
401.943600 0.885095
402.161000 0.975378
402.378500 0.807807
402.596000 0.937882
402.813500 0.714427
403.031000 0.732581
403.248600 0.817370
403.466100 0.802433
403.683700 0.755597
403.901300 0.746684
404.118900 0.809118
404.336500 0.893029
404.554100 0.684428
404.771700 0.831163
404.989300 0.708006
405.207000 0.857700
405.424600 0.683915
405.642300 0.732749
405.860000 0.763701
406.077700 0.675573
406.295400 0.727712
406.513100 0.659237
406.730900 0.633344
406.948600 0.724042
407.166400 0.719168
407.384200 0.706043
407.602000 0.780766
407.819800 0.750919
408.037600 0.765804
408.255400 0.631141
408.473300 0.638966
408.691100 0.620702
408.909000 0.659378
409.126900 0.574896
409.344800 0.647263
409.562700 0.650042
409.780600 0.636363
409.998500 0.621151
410.216500 0.566101
410.434400 0.559664
410.652400 0.637378
410.870400 0.694894
411.088400 0.645766
411.306400 0.617413
411.524400 0.644568
411.742400 0.621452
411.960500 0.697904
412.178500 0.584884
412.396600 0.540364
412.614700 0.561017
412.832800 0.588396
413.050900 0.615181
413.269000 0.525399
413.487100 0.579168
413.705300 0.578496
413.923400 0.629764
414.141600 0.497032
414.359800 0.621485
414.578000 0.569983
414.796200 0.554402
415.014400 0.536434
415.232600 0.614353
415.450900 0.580125
415.669200 0.461452
415.887400 0.483410
416.105700 0.521566
416.324000 0.543613
416.542300 0.583966
416.760600 0.603609
416.979000 0.489579
417.197300 0.554266
417.415700 0.519399
417.634100 0.496352
417.852400 0.467379
418.070800 0.534089
418.289300 0.530646
418.507700 0.523559
418.726100 0.501413
418.944600 0.477485
419.163000 0.442359
419.381500 0.509365
419.600000 0.489366
419.818500 0.460539
420.037000 0.498368
420.255500 0.468140
420.474100 0.534938
420.692600 0.500998
420.911200 0.494529
421.129800 0.470739
421.348300 0.488148
421.566900 0.504993
421.785600 0.480010
422.004200 0.471357
422.222800 0.449648
422.441500 0.479736
422.660100 0.481690
422.878800 0.468988
423.097500 0.443417
423.316200 0.453149
423.534900 0.438959
423.753600 0.455333
423.972400 0.442974
424.191100 0.465051
424.409900 0.432362
424.628700 0.427197
424.847500 0.459944
425.066300 0.479510
425.285100 0.417218
425.503900 0.477089
425.722800 0.444050
425.941600 0.478505
426.160500 0.402438
426.379300 0.457576
426.598200 0.426248
426.817100 0.433943
427.036100 0.407975
427.255000 0.461845
427.473900 0.445385
427.692900 0.438209
427.911800 0.376621
428.130800 0.432415
428.349800 0.390832
428.568800 0.475495
428.787800 0.406245
429.006800 0.422729
429.225900 0.399434
429.444900 0.451107
429.664000 0.370642
429.883100 0.426458
430.102200 0.397581
430.321300 0.449804
430.540400 0.450538
430.759500 0.396695
430.978700 0.400116
431.197800 0.387432
431.417000 0.407340
431.636200 0.421715
431.855300 0.375396
432.074500 0.404799
432.293800 0.394743
432.513000 0.401897
432.732200 0.384589
432.951500 0.410471
433.170700 0.398334
433.390000 0.403907
433.609300 0.407049
433.828600 0.404357
434.047900 0.436267
434.267300 0.415006
434.486600 0.351095
434.705900 0.402901
434.925300 0.370500
435.144700 0.413706
435.364100 0.373759
435.583500 0.451179
435.802900 0.364408
436.022300 0.416046
436.241800 0.393252
436.461200 0.420723
436.680700 0.395865
436.900100 0.467165
437.119600 0.432026
437.339100 0.372104
437.558600 0.392186
437.778200 0.397234
437.997700 0.378514
438.217300 0.401993
438.436800 0.359526
438.656400 0.424595
438.876000 0.376952
439.095600 0.363836
439.315200 0.402254
439.534800 0.401212
439.754500 0.373072
439.974100 0.420652
440.193800 0.375612
440.413500 0.443036
440.633100 0.388639
440.852800 0.445879
441.072500 0.454871
441.292300 0.416109
441.512000 0.405280
441.731800 0.416945
441.951500 0.395131
442.171300 0.390856
442.391100 0.410937
442.610900 0.421593
442.830700 0.388941
443.050500 0.403567
443.270300 0.381130
443.490200 0.383183
443.710100 0.442184
443.929900 0.399713
444.149800 0.393129
444.369700 0.441822
444.589600 0.397006
444.809500 0.430409
445.029500 0.423907
445.249400 0.435629
445.469400 0.475307
445.689400 0.399743
445.909300 0.417274
446.129300 0.420775
446.349300 0.411275
446.569400 0.452788
446.789400 0.481763
447.009400 0.448337
447.229500 0.452127
447.449600 0.436984
447.669600 0.444868
447.889700 0.422931
448.109800 0.420003
448.330000 0.429229
448.550100 0.502073
448.770200 0.432059
448.990400 0.449679
449.210600 0.414508
449.430700 0.449988
449.650900 0.435325
449.871100 0.448066
450.091400 0.536850
450.311600 0.474343
450.531800 0.473516
450.752100 0.455053
450.972400 0.466718
451.192600 0.485776
451.412900 0.480891
451.633200 0.484011
451.853500 0.469490
452.073900 0.496066
452.294200 0.472821
452.514600 0.455086
452.734900 0.477945
452.955300 0.485019
453.175700 0.473827
453.396100 0.484895
453.616500 0.491492
453.836900 0.495111
454.057400 0.482749
454.277800 0.530118
454.498300 0.518300
454.718800 0.457460
454.939300 0.537041
455.159700 0.475156
455.380300 0.511086
455.600800 0.531173
455.821300 0.517543
456.041900 0.516976
456.262400 0.527905
456.483000 0.522140
456.703600 0.474136
456.924200 0.536906
457.144800 0.520763
457.365400 0.564879
457.586000 0.550712
457.806700 0.542212
458.027400 0.549966
458.248000 0.577000
458.468700 0.521310
458.689400 0.541379
458.910100 0.546838
459.130800 0.532745
459.351600 0.556664
459.572300 0.515948
459.793100 0.550589
460.013800 0.563706
460.234600 0.595027
460.455400 0.592146
460.676200 0.605150
460.897000 0.572189
461.117800 0.529945
461.338700 0.577053
461.559500 0.673625
461.780400 0.611959
462.001300 0.564591
462.222200 0.589841
462.443100 0.571746
462.664000 0.541254
462.884900 0.585165
463.105900 0.656217
463.326800 0.719267
463.547800 0.623267
463.768700 0.611175
463.989700 0.685238
464.210700 0.608158
464.431700 0.596044
464.652800 0.651702
464.873800 0.604019
465.094800 0.628987
465.315900 0.679398
465.537000 0.636772
465.758100 0.682228
465.979200 0.677635
466.200300 0.750003
466.421400 0.722696
466.642500 0.655149
466.863700 0.701080
467.084800 0.678862
467.306000 0.702549
467.527200 0.750265
467.748400 0.680000
467.969600 0.776191
468.190800 0.720251
468.412000 0.739759
468.633300 0.743207
468.854500 0.748477
469.075800 0.721149
469.297000 0.642585
469.518300 0.722290
469.739600 0.715434
469.961000 0.708892
470.182300 0.694962
470.403600 0.810769
470.625000 0.772519
470.846300 0.744689
471.067700 0.775922
471.289100 0.818781
471.510500 0.746726
471.731900 0.642164
471.953300 0.780702
472.174800 0.754772
472.396200 0.861683
472.617700 0.769617
472.839100 0.846850
473.060600 0.785239
473.282100 0.882406
473.503600 0.879433
473.725100 0.831028
473.946700 0.799716
474.168200 0.795469
474.389800 0.904835
474.611300 0.824112
474.832900 0.804353
475.054500 0.798326
475.276100 0.885495
475.497700 0.916403
475.719300 0.889023
475.941000 0.922123
476.162600 0.916628
476.384300 0.837435
476.606000 0.898303
476.827700 0.921102
477.049400 0.852454
477.271100 0.883277
477.492800 0.884550
477.714500 0.915720
477.936300 1.013376
478.158000 0.872022
478.379800 0.981246
478.601600 1.029962
478.823400 0.963557
479.045200 1.126526
479.267000 0.905181
479.488800 0.894708
479.710700 0.933529
479.932500 0.973444
480.154400 0.983209
480.376300 0.961266
480.598200 0.933355
480.820100 0.982022
481.042000 0.971902
481.263900 1.012474
481.485900 0.945826
481.707800 1.060284
481.929800 0.981916
482.151700 0.974718
482.373700 1.057708
482.595700 0.986749
482.817700 0.916473
483.039800 1.064386
483.261800 0.965606
483.483800 1.040617
483.705900 0.971818
483.928000 1.115223
484.150100 1.015522
484.372100 1.029772
484.594300 0.921049
484.816400 1.120798
485.038500 1.010962
485.260600 1.102003
485.482800 1.185074
485.705000 1.093903
485.927100 1.116760
486.149300 1.086014
486.371500 1.114888
486.593700 1.059443
486.816000 1.164338
487.038200 1.179014
487.260500 1.076704
487.482700 1.119642
487.705000 1.333734
487.927300 1.270808
488.149600 1.083606
488.371900 1.100838
488.594200 1.244737
488.816500 1.188842
489.038900 1.230931
489.261200 1.183013
489.483600 1.113985
489.706000 1.012518
489.928400 1.078350
490.150800 1.194457
490.373200 1.329147
490.595600 1.109417
490.818000 1.140619
491.040500 1.155161
491.263000 1.099649
491.485400 1.421014
491.707900 1.294815
491.930400 1.274291
492.152900 1.189901
492.375500 1.164873
492.598000 1.418598
492.820500 1.316583
493.043100 1.171300
493.265700 1.228479
493.488200 1.206330
493.710800 1.294097
493.933400 1.238469
494.156100 1.154890
494.378700 1.292654
494.601300 1.189400
494.824000 1.256496
495.046600 1.397906
495.269300 1.292145
495.492000 1.261351
495.714700 1.171913
495.937400 1.318093
496.160100 1.281830
496.382900 1.291121
496.605600 1.208005
496.828400 1.228622
497.051100 1.241851
497.273900 1.499400
497.496700 1.424388
497.719500 1.412727
497.942300 1.371406
498.165200 1.222229
498.388000 1.246130
498.610900 1.256678
498.833700 1.396713
499.056600 1.412944
499.279500 1.236933
499.502400 1.248538
499.725300 1.106029
499.948200 1.200134
500.171200 1.412473
500.394100 1.708308
500.617100 1.281895
500.840000 1.470072
501.063000 1.123007
501.286000 1.663836
501.509000 1.294910
501.732000 1.337220
501.955100 1.404533
502.178100 1.325341
502.401200 1.337083
502.624200 1.442626
502.847300 1.351425
503.070400 1.333759
503.293500 1.505723
503.516600 1.338474
503.739700 1.319334
503.962800 1.453394
504.186000 1.370423
504.409200 1.522518
504.632300 1.613279
504.855500 1.197631
505.078700 1.329589
505.301900 1.619717
505.525100 1.265227
505.748300 1.251898
505.971600 1.594591
506.194800 1.675296
506.418100 1.305444
506.641400 1.554067
506.864700 1.316755
507.088000 1.443545
507.311300 1.280415
507.534600 1.303198
507.757900 1.314996
507.981300 1.377057
508.204600 1.328213
508.428000 1.319782
508.651400 1.167226
508.874800 1.253481
509.098200 1.484871
509.321600 1.387781
509.545000 1.395697
509.768500 1.357246
509.991900 1.652248
510.215400 1.503618
510.438800 1.286424
510.662300 1.165384
510.885800 1.270698
511.109300 1.244926
511.332900 1.219110
511.556400 1.365562
511.779900 1.287993
512.003500 1.288967
512.227000 1.189612
512.450600 1.236008
512.674200 1.237033
512.897800 1.275019
513.121400 1.742981
513.345100 1.377129
513.568700 1.152998
513.792300 1.550625
514.016000 1.277500
514.239700 1.945238
514.463400 1.274741
514.687100 1.330475
514.910800 1.294566
515.134500 1.462989
515.358200 1.440253
515.581900 1.266698
515.805700 1.258768
516.029500 1.327114
516.253200 1.158479
516.477000 1.236662
516.700800 1.099121
516.924600 1.215153
517.148500 1.100221
517.372300 1.156137
517.596100 1.265874
517.820000 1.261016
518.043900 1.122026
518.267700 1.467932
518.491600 1.261499
518.715500 1.193935
518.939500 1.313485
519.163400 1.320421
519.387300 1.283532
519.611300 1.142899
519.835200 1.232229
520.059200 1.307715
520.283200 1.365095
520.507200 1.146773
520.731200 1.462409
520.955200 1.155405
521.179200 1.278403
521.403300 1.536340
521.627300 1.296010
521.851400 1.165214
522.075500 1.161452
522.299600 1.180137
522.523700 1.058690
522.747800 1.084058
522.971900 1.392174
523.196000 1.096922
523.420200 1.232092
523.644300 1.046515
523.868500 1.188674
524.092700 1.038036
524.316900 1.322376
524.541100 1.077233
524.765300 1.200177
524.989500 1.321168
525.213800 1.092066
525.438000 1.098859
525.662300 1.024981
525.886500 1.004580
526.110800 1.098107
526.335100 0.988467
526.559400 1.136267
526.783700 0.992570
527.008100 1.029934
527.232400 1.090800
527.456800 1.052128
527.681100 1.063847
527.905500 1.017755
528.129900 1.065950
528.354300 1.328019
528.578700 0.984291
528.803100 0.926796
529.027600 1.085698
529.252000 1.085885
529.476500 1.014191
529.700900 0.941162
529.925400 1.030637
530.149900 0.944783
530.374400 0.973726
530.598900 1.199920
530.823400 1.119927
531.048000 1.175201
531.272500 0.946042
531.497100 0.922324
531.721700 0.921873
531.946200 1.249867
532.170800 0.892226
532.395400 1.129213
532.620000 0.851253
532.844700 0.964980
533.069300 0.980132
533.294000 0.877255
533.518600 0.950497
533.743300 1.009471
533.968000 0.872120
534.192700 0.979408
534.417400 0.940484
534.642100 0.907116
534.866800 0.856806
535.091600 0.958509
535.316300 0.827653
535.541100 0.830690
535.765900 0.966045
535.990700 0.823337
536.215500 0.772189
536.440300 0.801310
536.665100 0.794700
536.889900 0.814973
537.114800 0.757275
537.339600 0.670431
537.564500 0.757162
537.789400 0.858766
538.014300 0.748905
538.239200 0.803161
538.464100 0.789292
538.689000 0.744036
538.913900 0.758131
539.138900 0.720324
539.363800 0.773115
539.588800 0.784851
539.813800 0.727688
540.038800 0.714008
540.263800 0.767189
540.488800 0.716779
540.713800 0.758973
540.938900 0.719381
541.163900 0.775217
541.389000 0.754776
541.614000 0.799815
541.839100 0.700036
542.064200 0.718048
542.289300 0.715740
542.514400 0.677227
542.739600 0.674474
542.964700 0.724276
543.189900 0.733512
543.415000 0.691687
543.640200 0.639949
543.865400 0.721597
544.090600 0.645023
544.315800 0.653489
544.541000 0.696889
544.766200 0.660265
544.991500 0.647189
545.216700 0.648937
545.442000 0.680104
545.667300 0.646028
545.892600 0.619264
546.117900 0.629885
546.343200 0.681590
546.568500 0.667856
546.793800 0.619241
547.019200 0.662074
547.244500 0.557881
547.469900 0.569072
547.695300 0.607802
547.920600 0.550750
548.146000 0.531064
548.371500 0.540262
548.596900 0.582834
548.822300 0.602625
549.047800 0.606186
549.273200 0.614164
549.498700 0.540858
549.724200 0.512487
549.949600 0.541073
550.175100 0.524171
550.400700 0.511346
550.626200 0.572469
550.851700 0.491388
551.077300 0.485889
551.302800 0.513457
551.528400 0.482517
551.754000 0.498156
551.979600 0.514393
552.205200 0.531164
552.430800 0.481284
552.656400 0.476966
552.882000 0.492334
553.107700 0.443191
553.333300 0.473464
553.559000 0.464135
553.784700 0.456178
554.010400 0.470299
554.236100 0.463532
554.461800 0.467697
554.687500 0.396064
554.913200 0.463003
555.139000 0.403022
555.364800 0.425840
555.590500 0.410845
555.816300 0.460221
556.042100 0.456390
556.267900 0.426281
556.493700 0.424705
556.719500 0.434070
556.945400 0.420969
557.171200 0.378719
557.397100 0.399951
557.623000 0.409943
557.848800 0.403244
558.074700 0.388615
558.300600 0.400421
558.526600 0.361607
558.752500 0.390276
558.978400 0.367634
559.204400 0.368734
559.430300 0.362231
559.656300 0.314753
559.882300 0.300451
560.108300 0.348904
560.334300 0.331088
560.560300 0.320776
560.786300 0.341857
561.012400 0.334610
561.238400 0.318520
561.464500 0.326341
561.690500 0.361626
561.916600 0.333273
562.142700 0.325134
562.368800 0.311338
562.594900 0.327098
562.821100 0.310350
563.047200 0.325473
563.273300 0.310696
563.499500 0.324070
563.725700 0.322320
563.951900 0.304561
564.178100 0.305639
564.404300 0.316876
564.630500 0.292556
564.856700 0.316994
565.082900 0.300326
565.309200 0.273736
565.535500 0.307576
565.761700 0.298067
565.988000 0.285198
566.214300 0.267910
566.440600 0.268610
566.666900 0.266205
566.893200 0.271873
567.119600 0.282363
567.345900 0.253461
567.572300 0.267473
567.798700 0.249844
568.025000 0.267791
568.251400 0.265312
568.477800 0.260182
568.704300 0.249958
568.930700 0.243617
569.157100 0.247416
569.383600 0.256287
569.610000 0.240798
569.836500 0.246299
570.063000 0.255518
570.289500 0.264503
570.516000 0.262155
570.742500 0.242660
570.969000 0.240775
571.195600 0.238856
571.422100 0.240629
571.648700 0.231253
571.875200 0.239820
572.101800 0.239053
572.328400 0.239200
572.555000 0.239465
572.781600 0.247559
573.008200 0.240276
573.234900 0.241244
573.461500 0.218475
573.688200 0.217141
573.914900 0.243106
574.141500 0.222732
574.368200 0.224592
574.594900 0.221144
574.821600 0.208047
575.048400 0.226796
575.275100 0.212789
575.501800 0.216950
575.728600 0.213681
575.955400 0.211208
576.182100 0.216865
576.408900 0.216861
576.635700 0.215133
576.862600 0.208775
577.089400 0.199346
577.316200 0.191813
577.543100 0.206942
577.769900 0.194158
577.996800 0.200304
578.223700 0.196351
578.450500 0.191993
578.677400 0.195565
578.904400 0.198055
579.131300 0.194341
579.358200 0.186027
579.585100 0.181669
579.812100 0.181431
580.039100 0.192013
580.266000 0.180958
580.493000 0.181527
580.720000 0.183681
580.947000 0.181847
581.174100 0.181259
581.401100 0.166055
581.628100 0.162798
581.855200 0.168175
582.082200 0.176357
582.309300 0.170189
582.536400 0.176989
582.763500 0.161798
582.990600 0.163288
583.217700 0.157743
583.444900 0.168041
583.672000 0.167561
583.899100 0.180586
584.126300 0.171168
584.353500 0.161474
584.580700 0.163275
584.807900 0.179040
585.035100 0.167811
585.262300 0.163828
585.489500 0.162932
585.716700 0.155222
585.944000 0.154671
586.171300 0.156631
586.398500 0.162203
586.625800 0.158134
586.853100 0.153978
587.080400 0.152226
587.307700 0.148378
587.535000 0.150644
587.762400 0.149994
587.989700 0.145199
588.217100 0.154005
588.444500 0.150599
588.671800 0.144005
588.899200 0.143557
589.126600 0.149896
589.354000 0.157843
589.581500 0.149413
589.808900 0.161792
590.036300 0.149801
590.263800 0.142311
590.491300 0.128596
590.718700 0.144216
590.946200 0.148048
591.173700 0.151523
591.401200 0.150474
591.628800 0.134032
591.856300 0.136410
592.083800 0.147832
592.311400 0.123210
592.538900 0.128369
592.766500 0.141766
592.994100 0.135207
593.221700 0.135546
593.449300 0.132613
593.676900 0.127692
593.904600 0.138323
594.132200 0.124567
594.359800 0.137270
594.587500 0.134813
594.815200 0.135297
595.042900 0.139038
595.270500 0.131466
595.498300 0.136285
595.726000 0.134418
595.953700 0.141938
596.181400 0.145316
596.409200 0.129000
596.636900 0.135033
596.864700 0.148689
597.092500 0.143284
597.320300 0.130195
597.548100 0.139209
597.775900 0.140744
598.003700 0.127492
598.231500 0.142409
598.459400 0.136872
598.687200 0.135441
598.915100 0.135780
599.143000 0.132145
599.370900 0.131326
599.598800 0.128825
599.826700 0.127906
600.054600 0.138445
600.282500 0.120015
600.510500 0.110342
600.738400 0.118637
600.966400 0.119570
601.194400 0.126276
601.422300 0.127021
601.650300 0.124921
601.878300 0.125225
602.106400 0.113497
602.334400 0.119634
602.562400 0.129170
602.790500 0.131582
603.018500 0.122797
603.246600 0.130589
603.474700 0.125870
603.702800 0.117082
603.930900 0.127161
604.159000 0.126664
604.387100 0.129490
604.615200 0.115708
604.843400 0.121824
605.071500 0.131785
605.299700 0.107018
605.527900 0.110898
605.756100 0.110858
605.984300 0.119864
606.212500 0.108728
606.440700 0.101669
606.668900 0.112979
606.897200 0.102467
607.125400 0.115567
607.353700 0.105743
607.581900 0.119950
607.810200 0.119393
608.038500 0.119142
608.266800 0.111033
608.495100 0.096172
608.723500 0.109559
608.951800 0.099301
609.180100 0.092056
609.408500 0.102280
609.636900 0.108897
609.865300 0.115900
610.093600 0.121923
610.322000 0.110223
610.550500 0.115606
610.778900 0.110378
611.007300 0.105215
611.235700 0.121891
611.464200 0.108656
611.692700 0.110382
611.921100 0.095974
612.149600 0.116063
612.378100 0.111500
612.606600 0.114269
612.835100 0.117573
613.063700 0.114162
613.292200 0.118753
613.520800 0.123213
613.749300 0.105860
613.977900 0.117565
614.206500 0.119196
614.435100 0.110217
614.663700 0.118927
614.892300 0.110248
615.120900 0.095680
615.349500 0.113101
615.578200 0.113919
615.806800 0.106405
616.035500 0.098493
616.264200 0.088197
616.492900 0.104081
616.721600 0.109561
616.950300 0.101111
617.179000 0.097855
617.407700 0.107806
617.636500 0.096990
617.865200 0.102824
618.094000 0.119590
618.322700 0.109887
618.551500 0.086930
618.780300 0.093660
619.009100 0.100613
619.237900 0.108876
619.466700 0.105025
619.695600 0.114883
619.924400 0.110058
620.153300 0.097852
620.382100 0.105397
620.611000 0.105363
620.839900 0.113865
621.068800 0.102748
621.297700 0.104977
621.526600 0.111182
621.755600 0.104007
621.984500 0.099502
622.213500 0.097749
622.442400 0.085520
622.671400 0.104332
622.900400 0.098325
623.129400 0.090443
623.358400 0.111912
623.587400 0.098952
623.816400 0.105529
624.045400 0.115209
624.274500 0.101936
624.503500 0.084568
624.732600 0.091209
624.961700 0.098752
625.190800 0.108819
625.419900 0.083772
625.649000 0.096026
625.878100 0.105434
626.107200 0.093709
626.336400 0.088208
626.565500 0.115381
626.794700 0.103569
627.023800 0.098170
627.253000 0.088299
627.482200 0.095764
627.711400 0.092422
627.940600 0.103524
628.169800 0.071196
628.399100 0.130750
628.628300 0.104173
628.857600 0.078245
629.086800 0.107774
629.316100 0.078716
629.545400 0.109187
629.774700 0.081145
630.004000 0.110682
630.233300 0.102059
630.462600 0.090614
630.692000 0.099953
630.921300 0.099246
631.150700 0.099208
631.380100 0.085863
631.609400 0.109744
631.838800 0.111721
632.068200 0.097344
632.297600 0.090056
632.527100 0.103206
632.756500 0.100379
632.985900 0.098482
633.215400 0.098711
633.444800 0.070834
633.674300 0.089257
633.903800 0.108622
634.133300 0.074761
634.362800 0.112336
634.592300 0.098888
634.821800 0.110502
635.051400 0.114946
635.280900 0.077506
635.510500 0.072087
635.740000 0.085835
635.969600 0.101229
636.199200 0.108354
636.428800 0.091008
636.658400 0.110926
636.888000 0.090763
637.117700 0.097249
637.347300 0.087389
637.577000 0.068922
637.806600 0.109359
638.036300 0.087732
638.266000 0.085057
638.495700 0.107288
638.725400 0.113172
638.955100 0.062108
639.184800 0.088686
639.414500 0.117604
639.644300 0.073698
639.874000 0.091266
640.103800 0.096789
640.333600 0.083315
640.563300 0.103528
640.793100 0.086259
641.022900 0.103281
641.252800 0.086416
641.482600 0.083953
641.712400 0.080513
641.942300 0.096789
642.172100 0.090181
642.402000 0.081330
642.631900 0.086716
642.861700 0.078678
643.091600 0.103641
643.321600 0.052987
643.551500 0.063052
643.781400 0.081742
644.011300 0.091368
644.241300 0.092861
644.471200 0.093504
644.701200 0.061526
644.931200 0.125750
645.161200 0.055841
645.391200 0.094293
645.621200 0.104021
645.851200 0.076789
646.081200 0.063833
646.311300 0.127922
646.541300 0.094037
646.771400 0.080925
647.001500 0.111271
647.231600 0.108891
647.461600 0.140079
647.691800 0.111393
647.921900 0.085724
648.152000 0.082241
648.382100 0.106660
648.612300 0.100217
648.842400 0.096230
649.072600 0.116661
649.302800 0.061571
649.532900 0.066247
649.763100 0.061892
649.993300 0.083834
650.223600 0.094549
650.453800 0.107532
650.684000 0.073242
650.914300 0.115325
651.144500 0.116339
651.374800 0.125045
651.605100 0.107819
651.835400 0.100359
652.065700 0.073209
652.296000 0.115398
652.526300 0.054446
652.756600 0.064904
652.987000 0.073427
653.217300 0.053006
653.447700 0.103854
653.678000 0.094305
653.908400 0.101979
654.138800 0.101245
654.369200 0.122143
654.599600 0.122895
654.830000 0.091378
655.060500 0.152069
655.290900 0.166595
655.521300 0.144860
655.751800 0.111565
655.982300 0.002910
656.212800 0.000974
656.443300 0.001458
656.673800 0.001232
656.904300 0.051234
657.134800 0.107341
657.365300 0.111503
657.595900 0.116165
657.826400 0.109571
658.057000 0.113837
658.287500 0.112893
658.518100 0.113220
658.748700 0.114964
658.979300 0.123996
659.209900 0.141261
659.440600 0.154411
659.671200 0.194027
659.901800 0.180445
660.132500 0.191216
660.363200 0.139837
660.593800 0.134218
660.824500 0.101525
661.055200 0.064185
661.285900 0.105174
661.516600 0.114711
661.747400 0.118550
661.978100 0.095095
662.208800 0.111129
662.439600 0.160794
662.670400 0.102192
662.901100 0.100094
663.131900 0.109678
663.362700 0.099059
663.593500 0.127757
663.824300 0.098626
664.055200 0.066572
664.286000 0.065400
664.516800 0.111093
664.747700 0.100939
664.978600 0.111289
665.209400 0.062348
665.440300 0.121255
665.671200 0.060462
665.902100 0.146254
666.133000 0.137755
666.364000 0.095815
666.594900 0.077792
666.825900 0.079213
667.056800 0.087650
667.287800 0.101586
667.518800 0.097656
667.749700 0.106287
667.980700 0.130032
668.211700 0.087737
668.442800 0.065714
668.673800 0.146207
668.904800 0.048073
669.135900 0.123020
669.366900 0.100193
669.598000 0.069924
669.829100 0.111934
670.060200 0.073796
670.291300 0.124130
670.522400 0.069784
670.753500 0.086323
670.984600 0.068192
671.215700 0.114622
671.446900 0.145219
671.678100 0.085847
671.909200 0.095547
672.140400 0.100876
672.371600 0.082220
672.602800 0.074476
672.834000 0.067984
673.065200 0.071628
673.296400 0.123711
673.527700 0.101173
673.758900 0.070051
673.990200 0.090143
674.221400 0.113952
674.452700 0.127716
674.684000 0.072495
674.915300 0.092640
675.146600 0.082583
675.377900 0.056843
675.609300 0.105819
675.840600 0.106933
676.071900 0.084133
676.303300 0.110013
676.534700 0.074915
676.766100 0.118826
676.997400 0.120756
677.228800 0.087987
677.460200 0.117641
677.691700 0.081376
677.923100 0.105780
678.154500 0.101615
678.386000 0.098645
678.617400 0.087933
678.848900 0.106316
679.080400 0.059098
679.311900 0.109098
679.543400 0.081331
679.774900 0.067429
680.006400 0.108425
680.237900 0.103192
680.469400 0.114037
680.701000 0.086798
680.932500 0.110790
681.164100 0.077820
681.395700 0.113576
681.627300 0.081943
681.858900 0.083004
682.090500 0.091305
682.322100 0.105798
682.553700 0.104988
682.785400 0.079604
683.017000 0.085913
683.248700 0.083694
683.480300 0.083651
683.712000 0.063014
683.943700 0.107339
684.175400 0.079653
684.407100 0.114384
684.638800 0.070045
684.870500 0.137231
685.102300 0.137651
685.334000 0.095473
685.565800 0.088945
685.797500 0.115252
686.029300 0.078295
686.261100 0.124234
686.492900 0.099598
686.724700 0.087419
686.956500 0.061963
687.188300 0.090044
687.420200 0.091295
687.652000 0.099347
687.883800 0.076490
688.115700 0.072296
688.347600 0.096613
688.579500 0.091389
688.811400 0.100160
689.043300 0.093519
689.275200 0.096172
689.507100 0.113070
689.739000 0.057772
689.971000 0.057576
690.202900 0.091076
690.434900 0.094982
690.666900 0.111975
690.898800 0.089023
691.130800 0.097314
691.362800 0.104037
691.594800 0.135529
691.826900 0.090221
692.058900 0.091502
692.290900 0.098187
692.523000 0.094654
692.755000 0.085907
692.987100 0.084011
693.219200 0.089270
693.451300 0.091778
693.683400 0.133417
693.915500 0.089435
694.147600 0.085458
694.379700 0.071643
694.611900 0.075955
694.844000 0.104062
695.076200 0.061521
695.308300 0.110109
695.540500 0.094171
695.772700 0.082533
696.004900 0.111518
696.237100 0.093232
696.469300 0.107832
696.701600 0.080787
696.933800 0.081971
697.166000 0.092114
697.398300 0.107573
697.630600 0.086706
697.862800 0.149748
698.095100 0.106334
698.327400 0.104188
698.559700 0.091236
698.792000 0.071053
699.024300 0.088457
699.256700 0.093700
699.489000 0.099839
699.721400 0.118822
699.953700 0.065493
700.186100 0.083572
700.418500 0.100189
700.650900 0.087214
700.883300 0.104835
701.115700 0.113485
701.348100 0.091386
701.580600 0.119249
701.813000 0.100877
702.045400 0.072551
702.277900 0.104169
702.510400 0.087278
702.742900 0.054114
702.975300 0.080437
703.207800 0.089021
703.440300 0.113786
703.672900 0.124675
703.905400 0.087353
704.137900 0.133275
704.370500 0.089690
704.603000 0.079238
704.835600 0.105707
705.068200 0.045230
705.300800 0.067574
705.533400 0.125760
705.766000 0.073086
705.998600 0.106694
706.231200 0.087877
706.463800 0.088107
706.696500 0.103658
706.929100 0.097504
707.161800 0.068475
707.394500 0.084099
707.627200 0.086480
707.859900 0.110965
708.092600 0.116512
708.325300 0.112386
708.558000 0.088192
708.790700 0.107985
709.023500 0.069402
709.256200 0.074209
709.489000 0.098669
709.721700 0.057433
709.954500 0.079707
710.187300 0.074077
710.420100 0.128665
710.652900 0.075114
710.885700 0.064386
711.118600 0.116597
711.351400 0.067400
711.584200 0.076018
711.817100 0.086718
712.050000 0.104661
712.282800 0.066934
712.515700 0.092838
712.748600 0.078658
712.981500 0.050552
713.214400 0.109746
713.447400 0.083095
713.680300 0.076013
713.913200 0.064193
714.146200 0.069408
714.379100 0.064933
714.612100 0.060928
714.845100 0.101502
715.078100 0.093927
715.311100 0.058625
715.544100 0.093457
715.777100 0.093083
716.010200 0.045114
716.243200 0.108328
716.476200 0.086114
716.709300 0.084833
716.942400 0.080797
717.175400 0.081841
717.408500 0.070637
717.641600 0.119222
717.874700 0.105902
718.107800 0.089942
718.341000 0.130566
718.574100 0.128195
718.807200 0.148288
719.040400 0.116872
719.273600 0.114116
719.506700 0.116847
719.739900 0.108417
719.973100 0.067715
720.206300 0.049409
720.439500 0.112763
720.672700 0.099637
720.906000 0.101333
721.139200 0.091787
721.372500 0.089404
721.605700 0.110693
721.839000 0.104948
722.072300 0.098091
722.305500 0.074751
722.538800 0.092863
722.772100 0.044932
723.005500 0.076708
723.238800 0.105855
723.472100 0.078778
723.705500 0.097133
723.938800 0.073769
724.172200 0.060436
724.405600 0.084392
724.638900 0.141783
724.872300 0.079895
725.105700 0.085964
725.339100 0.105861
725.572600 0.081310
725.806000 0.064611
726.039400 0.081366
726.272900 0.060303
726.506300 0.089531
726.739800 0.075435
726.973300 0.121354
727.206800 0.117652
727.440300 0.113420
727.673800 0.087124
727.907300 0.104182
728.140800 0.125552
728.374300 0.081784
728.607900 0.076939
728.841400 0.057828
729.075000 0.099401
729.308600 0.085226
729.542100 0.090508
729.775700 0.081748
730.009300 0.090705
730.242900 0.073628
730.476600 0.100582
730.710200 0.089138
730.943800 0.111406
731.177500 0.110540
731.411100 0.095012
731.644800 0.099480
731.878500 0.091517
732.112200 0.096666
732.345800 0.060660
732.579500 0.068356
732.813300 0.099911
733.047000 0.087516
733.280700 0.102677
733.514500 0.083142
733.748200 0.104688
733.982000 0.109141
734.215700 0.086132
734.449500 0.085663
734.683300 0.083721
734.917100 0.065723
735.150900 0.085034
735.384700 0.126758
735.618500 0.075961
735.852400 0.104028
736.086200 0.098561
736.320100 0.090277
736.553900 0.085343
736.787800 0.108068
737.021700 0.092069
737.255600 0.080333
737.489500 0.084453
737.723400 0.074397
737.957300 0.056097
738.191200 0.092634
738.425200 0.069579
738.659100 0.065182
738.893100 0.074167
739.127100 0.091669
739.361000 0.074346
739.595000 0.091651
739.829000 0.099320
740.063000 0.065076
740.297000 0.075000
740.531000 0.060971
740.765100 0.087317
740.999100 0.091129
741.233200 0.083003
741.467200 0.086131
741.701300 0.074158
741.935400 0.136230
742.169500 0.093869
742.403600 0.065738
742.637700 0.081752
742.871800 0.073552
743.105900 0.072750
743.340000 0.057202
743.574200 0.099226
743.808300 0.083356
744.042500 0.085200
744.276700 0.071229
744.510800 0.092630
744.745000 0.096486
744.979200 0.088646
745.213400 0.108034
745.447700 0.102807
745.681900 0.047760
745.916100 0.095173
746.150400 0.103885
746.384600 0.126411
746.618900 0.092627
746.853200 0.118884
747.087400 0.088663
747.321700 0.077573
747.556000 0.083520
747.790300 0.109923
748.024700 0.060340
748.259000 0.048348
748.493300 0.133074
748.727700 0.091416
748.962000 0.086851
749.196400 0.098120
749.430800 0.116803
749.665200 0.085706
749.899500 0.096167
750.133900 0.086014
750.368400 0.094315
750.602800 0.056742
750.837200 0.074217
751.071700 0.097014
751.306100 0.101526
751.540600 0.081692
751.775000 0.090135
752.009500 0.088226
752.244000 0.068757
752.478500 0.084398
752.713000 0.081087
752.947500 0.074492
753.182000 0.099926
753.416600 0.119623
753.651100 0.097722
753.885600 0.106271
754.120200 0.088809
754.354800 0.101524
754.589400 0.081807
754.823900 0.103830
755.058500 0.051857
755.293100 0.083093
755.527800 0.099468
755.762400 0.098002
755.997000 0.138386
756.231700 0.101133
756.466300 0.079002
756.701000 0.096186
756.935600 0.076479
757.170300 0.104394
757.405000 0.116678
757.639700 0.100688
757.874400 0.102686
758.109100 0.083800
758.343800 0.099020
758.578600 0.092797
758.813300 0.096030
759.048100 0.087994
759.282800 0.080833
759.517600 0.118979
759.752400 0.099236
759.987200 0.097592
760.222000 0.107658
760.456800 0.099314
760.691600 0.113172
760.926400 0.104161
761.161300 0.095029
761.396100 0.077075
761.631000 0.092594
761.865800 0.138694
762.100700 0.088612
762.335600 0.075401
762.570500 0.092932
762.805400 0.078490
763.040300 0.082906
763.275200 0.105581
763.510100 0.102840
763.745000 0.109378
763.980000 0.089371
764.214900 0.080318
764.449900 0.102470
764.684900 0.076612
764.919800 0.082527
765.154800 0.094839
765.389800 0.098810
765.624800 0.119752
765.859900 0.084839
766.094900 0.064032
766.329900 0.092378
766.565000 0.088187
766.800000 0.088340
767.035100 0.062469
767.270100 0.104035
767.505200 0.087554
767.740300 0.106957
767.975400 0.083302
768.210500 0.104918
768.445600 0.079652
768.680800 0.093717
768.915900 0.142383
769.151000 0.101998
769.386200 0.111731
769.621400 0.101980
769.856500 0.110134
770.091700 0.100313
770.326900 0.103419
770.562100 0.067604
770.797300 0.074614
771.032500 0.082704
771.267700 0.091584
771.503000 0.095482
771.738200 0.122229
771.973500 0.077212
772.208700 0.090043
772.444000 0.087442
772.679300 0.083940
772.914600 0.087438
773.149900 0.057792
773.385200 0.070234
773.620500 0.087317
773.855800 0.096669
774.091100 0.070721
774.326500 0.120788
774.561800 0.100805
774.797200 0.109012
775.032600 0.110168
775.267900 0.120775
775.503300 0.103272
775.738700 0.130100
775.974100 0.116314
776.209500 0.068600
776.445000 0.128199
776.680400 0.097544
776.915800 0.117996
777.151300 0.088606
777.386800 0.094978
777.622200 0.109705
777.857700 0.056572
778.093200 0.100391
778.328700 0.067315
778.564200 0.080898
778.799700 0.070047
779.035200 0.100559
779.270700 0.094572
779.506300 0.032009
779.741800 0.043877
779.977400 0.091957
780.213000 0.048893
780.448500 0.089931
780.684100 0.105858
780.919700 0.118484
781.155300 0.125429
781.390900 0.071576
781.626500 0.094812
781.862200 0.100860
782.097800 0.104876
782.333500 0.115406
782.569100 0.098651
782.804800 0.105038
783.040500 0.079619
783.276100 0.060069
783.511800 0.088760
783.747500 0.100717
783.983200 0.103914
784.219000 0.098371
784.454700 0.110125
784.690400 0.132435
784.926200 0.089013
785.161900 0.103001
785.397700 0.090069
785.633500 0.074427
785.869200 0.090887
786.105000 0.106882
786.340800 0.093333
786.576600 0.083935
786.812400 0.097854
787.048300 0.102201
787.284100 0.118732
787.519900 0.086199
787.755800 0.109736
787.991700 0.069298
788.227500 0.093261
788.463400 0.112783
788.699300 0.095202
788.935200 0.079772
789.171100 0.111368
789.407000 0.069104
789.642900 0.097188
789.878900 0.098398
790.114800 0.092177
790.350700 0.078128
790.586700 0.088024
790.822700 0.101604
791.058600 0.073533
791.294600 0.094785
791.530600 0.087313
791.766600 0.083025
792.002600 0.122955
792.238700 0.120794
792.474700 0.098157
792.710700 0.126534
792.946800 0.059646
793.182800 0.082110
793.418900 0.114387
793.655000 0.093877
793.891000 0.132921
794.127100 0.072889
794.363200 0.114641
794.599300 0.088958
794.835500 0.078259
795.071600 0.147614
795.307700 0.133850
795.543900 0.104966
795.780000 0.082616
796.016200 0.111286
796.252300 0.126584
796.488500 0.090960
796.724700 0.125436
796.960900 0.134911
797.197100 0.106404
797.433300 0.060389
797.669500 0.111732
797.905800 0.096339
798.142000 0.062932
798.378300 0.097704
798.614500 0.091470
798.850800 0.084815
799.087100 0.096524
799.323300 0.097104
799.559600 0.071833
799.795900 0.102118
800.032200 0.141875
800.268600 0.090950
800.504900 0.074507
800.741200 0.087843
800.977600 0.091908
801.213900 0.086989
801.450300 0.088188
801.686700 0.124409
801.923000 0.105258
802.159400 0.102450
802.395800 0.109156
802.632200 0.146212
802.868600 0.064863
803.105100 0.100598
803.341500 0.072335
803.577900 0.102916
803.814400 0.123961
804.050800 0.079653
804.287300 0.058952
804.523800 0.052619
804.760300 0.133250
804.996800 0.057460
805.233300 0.094904
805.469800 0.116609
805.706300 0.116910
805.942800 0.051274
806.179400 0.079079
806.415900 0.120766
806.652500 0.079933
806.889000 0.122908
807.125600 0.068034
807.362200 0.079385
807.598800 0.106780
807.835400 0.065441
808.072000 0.082073
808.308600 0.125787
808.545200 0.086225
808.781800 0.069020
809.018500 0.130533
809.255100 0.108884
809.491800 0.079050
809.728400 0.123115
809.965100 0.052253
810.201800 0.118175
810.438500 0.104333
810.675200 0.057321
810.911900 0.131508
811.148600 0.155662
811.385300 0.060721
811.622100 0.072014
811.858800 0.096426
812.095600 0.064427
812.332300 0.139281
812.569100 0.078270
812.805900 0.079229
813.042700 0.087614
813.279500 0.124693
813.516300 0.078321
813.753100 0.093289
813.989900 0.087293
814.226700 0.103122
814.463600 0.115091
814.700400 0.146935
814.937300 0.086200
815.174200 0.088928
815.411000 0.083134
815.647900 0.047678
815.884800 0.041097
816.121700 0.110974
816.358600 0.068888
816.595500 0.165150
816.832400 0.109746
817.069400 0.077109
817.306300 0.077055
817.543300 0.107066
817.780200 0.047189
818.017200 0.086273
818.254200 0.085271
818.491200 0.072426
818.728200 0.099600
818.965200 0.165814
819.202200 0.076637
819.439200 0.115168
819.676200 0.066510
819.913300 0.088319
820.150300 0.049422
820.387400 0.135929
820.624400 0.105075
820.861500 0.091925
821.098600 0.113605
821.335700 0.137727
821.572700 0.081706
821.809900 0.048077
822.047000 0.098660
822.284100 0.075049
822.521200 0.087944
822.758400 0.119463
822.995500 0.130522
823.232700 0.189314
823.469800 0.168039
823.707000 0.076564
823.944200 0.114240
824.181400 0.142207
824.418600 0.083702
824.655800 0.085016
824.893000 0.129226
825.130200 0.086527
825.367500 0.070331
825.604700 0.105375
825.841900 0.059688
826.079200 0.090038
826.316500 0.067384
826.553700 0.091770
826.791000 0.145960
827.028300 0.104381
827.265600 0.051467
827.502900 0.063159
827.740200 0.160002
827.977600 0.157028
828.214900 0.119181
828.452200 0.062498
828.689600 0.083198
828.927000 0.045043
829.164300 0.011058
829.401700 0.094590
829.639100 0.083619
829.876500 0.062080
830.113900 0.118035
830.351300 0.114347
830.588700 0.100811
830.826100 0.071697
831.063600 0.075784
831.301000 0.135541
831.538500 0.071050
831.775900 0.129976
832.013400 0.119686
832.250900 0.048786
832.488400 0.179086
832.725900 0.272966
832.963400 0.075926
833.200900 0.107192
833.438400 0.130538
833.675900 0.216173
833.913500 0.085687
834.151000 0.119162
834.388600 0.137909
834.626100 0.133780
834.863700 0.086167
835.101300 0.041474
835.338900 0.137295
835.576500 0.126435
835.814100 0.031031
836.051700 0.080812
836.289300 0.178937
836.526900 0.022351
836.764600 0.065753
837.002200 0.139835
837.239900 0.143624
837.477500 0.044730
837.715200 0.059882
837.952900 0.082325
838.190600 0.148861
838.428300 0.020534
838.666000 0.081376
838.903700 0.231445
839.141400 0.204869
839.379100 0.038020
839.616900 0.098965
839.854600 0.123631
840.092400 0.202644
840.330200 0.159147
840.567900 0.134684
840.805700 0.044691
841.043500 0.211414
841.281300 0.143871
841.519100 0.035046
841.756900 0.266059
841.994700 0.006895
842.232600 0.154522
842.470400 0.147164
842.708200 0.073743
842.946100 0.066765
843.184000 0.103336
843.421800 0.101169
843.659700 0.074921
843.897600 0.115319
844.135500 0.287870
844.373400 0.114564
844.611300 0.115864
844.849200 -0.030181
845.087200 0.091007
845.325100 0.100435
845.563100 0.071761
845.801000 0.068398
846.039000 0.023698
846.277000 0.079672
846.514900 0.097492
846.752900 0.076073
846.990900 0.076917
847.228900 -0.184409
847.466900 0.391788
847.705000 0.131056
847.943000 0.077077
848.181000 0.121885
848.419100 0.125874
848.657100 0.140389
848.895200 0.146465
849.133300 0.046246
849.371300 0.047891
849.609400 0.258034
849.847500 0.142829
850.085600 0.159005
850.323700 0.214419
850.561900 0.200000
850.800000 0.183947
851.038100 0.281494
851.276300 0.039695
851.514400 -0.053532
851.752600 0.116068
851.990800 -0.011580
852.228900 0.062759
852.467100 0.180463
852.705300 0.077482
852.943500 0.169896
853.181700 0.188065
853.420000 0.096662
853.658200 0.049500
853.896400 0.144441
854.134700 0.110689
854.372900 0.137458
854.611200 0.196182
854.849500 0.133361
855.087700 -0.004904
855.326000 0.122284
855.564300 0.159612
855.802600 0.118582
856.040900 0.050129
856.279200 0.092780
856.517600 0.165288
856.755900 0.070338
856.994200 0.079454
857.232600 0.107602
857.471000 0.081909
857.709300 0.072123
857.947700 0.062466
858.186100 0.144983
858.424500 0.099752
858.662900 0.153709
858.901300 0.048348
859.139700 0.117378
859.378100 0.006376
859.616600 0.157085
859.855000 0.133640
860.093500 0.090160
860.331900 0.119147
860.570400 0.124021
860.808900 0.257998
861.047300 -0.020734
861.285800 0.058379
861.524300 0.246308
861.762800 0.143630
862.001300 0.057015
862.239900 0.138518
862.478400 0.068801
862.716900 0.021800
862.955500 0.088187
863.194000 0.050392
863.432600 0.073806
863.671200 0.077360
863.909800 0.199339
864.148300 0.084649
864.386900 0.049065
864.625500 0.264142
864.864200 0.130206
865.102800 -0.032800
865.341400 -0.009803
865.580000 -0.046691
865.818700 0.321175
866.057300 0.202944
866.296000 0.308571
866.534700 0.082025
866.773300 0.226693
867.012000 0.214617
867.250700 0.077293
867.489400 0.219997
867.728100 0.021151
867.966900 0.123969
868.205600 0.111822
868.444300 0.047198
868.683100 0.146966
868.921800 0.016210
869.160600 0.203297
869.399300 0.048857
869.638100 0.173489
869.876900 -0.009353
870.115700 0.157642
870.354500 0.109826
870.593300 -0.015453
870.832100 0.184162
871.070900 0.111904
871.309700 0.166574
871.548600 0.442022
871.787400 0.250135
872.026300 0.000966
872.265100 0.131717
872.504000 0.003762
872.742900 0.308738
872.981800 0.173485
873.220700 0.083849
873.459600 0.334514
873.698500 0.043856
873.937400 0.170529
874.176300 0.114910
874.415300 0.310387
874.654200 0.048820
874.893200 0.091374
875.132100 0.079029
875.371100 0.107701
875.610100 0.250112
875.849100 0.369675
876.088000 0.091021
876.327000 0.117524
876.566100 0.029363
876.805100 0.063661
877.044100 0.114838
877.283100 0.019411
877.522200 -0.089852
877.761200 0.122285
878.000300 0.136928
878.239300 0.134647
878.478400 0.096575
878.717500 0.060457
878.956600 0.129443
879.195700 0.169909
879.434800 0.099047
879.673900 0.152797
879.913000 0.142489
880.152100 0.195419
880.391300 0.095823
880.630400 0.142196
880.869600 0.075822
881.108700 -0.001826
881.347900 0.193441
881.587100 0.054881
881.826200 0.252589
882.065400 0.300050
882.304600 0.240475
882.543800 0.276547
882.783100 0.172362
883.022300 0.016919
883.261500 0.162780
883.500700 0.149662
883.740000 0.036788
883.979200 0.289735
884.218500 0.018348
884.457800 0.155018
884.697100 0.094129
884.936300 0.060015
885.175600 0.248347
885.414900 0.092238
885.654200 0.165199
885.893600 0.077204
886.132900 0.221391
886.372200 0.020060
886.611600 -0.052742
886.850900 0.113997
887.090300 0.171910
887.329600 0.307848
887.569000 0.104519
887.808400 0.055816
888.047800 -0.117279
888.287200 -0.036372
888.526600 0.073007
888.766000 0.059926
889.005400 0.140071
889.244800 0.232822
889.484300 -0.017917
889.723700 0.067208
889.963200 0.071693
890.202600 -0.015069
890.442100 0.089596
890.681600 0.168708
890.921100 0.006815
891.160600 0.053007
891.400100 0.191791
891.639600 0.116929
891.879100 0.046083
892.118600 0.233968
892.358100 0.128019
892.597700 0.119781
892.837200 0.081383
893.076800 0.185717
893.316300 0.190356
893.555900 0.268803
893.795500 -0.002495
894.035100 0.063639
894.274700 0.275939
894.514300 0.175293
894.753900 -0.030563
894.993500 0.256291
895.233100 0.014253
895.472700 0.017836
895.712400 0.059123
895.952000 0.122162
896.191700 0.267032
896.431400 0.407207
896.671000 0.145732
896.910700 0.131834
897.150400 0.260427
897.390100 0.156739
897.629800 0.083642
897.869500 -0.021988
898.109200 0.165598
898.348900 0.070381
898.588700 0.164882
898.828400 0.233041
899.068200 0.217877
899.307900 0.207409
899.547700 0.117185
899.787500 0.212943
900.027200 0.006332
900.267000 0.119133
900.506800 0.421896
900.746600 0.159239
900.986400 0.053534
901.226300 0.098384
901.466100 0.059716
901.705900 0.171201
901.945800 0.148859
902.185600 0.056780
902.425500 0.045578
902.665400 0.006816
902.905200 0.160487
903.145100 0.165612
903.385000 0.141181
903.624900 0.055869
903.864800 0.283426
904.104700 0.195888
904.344600 0.054063
904.584600 0.117311
904.824500 0.142994
905.064400 0.156970
905.304400 0.047566
905.544400 0.187447
905.784300 0.336221
906.024300 0.004211
906.264300 0.025940
906.504300 0.319201
906.744300 0.134155
906.984300 0.049926
907.224300 0.202288
907.464300 0.189100
907.704300 0.043956
907.944400 -0.024540
908.184400 -0.058318
908.424500 0.203858
908.664500 0.058334
908.904600 0.333375
909.144700 0.294710
909.384700 0.040819
909.624800 0.015778
909.864900 0.186518
910.105000 0.189217
910.345200 -0.110923
910.585300 0.037789
910.825400 0.242430
911.065500 0.235275
911.305700 0.257125
911.545800 0.133445
911.786000 0.106070
912.026200 0.003635
912.266300 0.036535
912.506500 0.044635
912.746700 0.205260
912.986900 0.157776
913.227100 0.198601
913.467300 0.137114
913.707500 0.126203
913.947800 0.206970
914.188000 0.351793
914.428300 0.335814
914.668500 0.053490
914.908800 0.218283
915.149000 0.028383
915.389300 0.513609
915.629600 0.514760
915.869900 0.294096
916.110200 0.074382
916.350500 -0.015645
916.590800 0.140743
916.831100 0.438689
917.071400 0.161822
917.311800 0.032877
917.552100 0.102526
917.792500 0.061017
918.032800 0.124757
918.273200 0.217650
918.513600 0.210908
918.753900 0.440126
918.994300 0.165997
919.234700 0.320006
919.475100 0.181885
919.715500 0.154518
919.956000 0.122098
920.196400 0.109556
920.436800 0.186992
920.677300 0.093565
920.917700 0.219511
921.158200 0.310299
921.398600 0.141933
921.639100 0.288474
921.879600 -0.139252
922.120100 0.156154
922.360600 0.148562
922.601100 0.134291
922.841600 0.286761
923.082100 0.277979
923.322600 0.138671
923.563100 0.215999
923.803700 0.354522
924.044200 0.082249
924.284800 0.297060
924.525400 0.387518
924.765900 0.194552
925.006500 0.016326
925.247100 -0.006124
925.487700 0.505735
925.728300 0.320967
925.968900 0.006873
926.209500 -0.009729
926.450100 0.604830
926.690800 0.239279
926.931400 0.053539
927.172000 0.178173
927.412700 0.205691
927.653300 0.058603
927.894000 0.221962
928.134700 0.177653
928.375400 0.276873
928.616100 0.284803
928.856800 -0.108177
929.097500 0.188640
929.338200 0.064693
929.578900 0.410500
929.819600 0.452352
930.060400 -0.059067
930.301100 0.155946
930.541900 0.287438
930.782600 0.343060
931.023400 0.133546
931.264200 0.017137
931.504900 0.150074
931.745700 0.494608
931.986500 -0.045793
932.227300 3.418633
932.468100 0.164186
932.708900 0.176835
932.949800 0.082717
933.190600 0.323343
933.431400 0.105003
933.672300 0.388754
933.913100 -0.037465
934.154000 -0.029261
934.394900 0.160455
934.635800 0.040351
934.876600 0.223475
935.117500 0.436816
935.358400 0.668917
935.599300 0.444899
935.840300 0.106932
936.081200 0.874223
936.322100 -0.129880
936.563000 0.591403
936.804000 0.144881
937.044900 -0.073344
937.285900 0.295108
937.526900 3.301030
937.767800 0.619549
938.008800 3.305566
938.249800 0.691141
938.490800 0.220783
938.731800 0.130868
938.972800 0.303139
939.213800 0.052767
939.454900 0.354046
939.695900 0.714065
939.936900 0.393875
940.178000 0.330266
940.419000 -0.283907
940.660100 0.976246
940.901200 0.204993
941.142200 -0.115976
941.383300 0.334505
941.624400 0.384391
941.865500 0.053143
942.106600 0.108778
942.347700 -0.177604
942.588900 0.678822
942.830000 0.790102
943.071100 0.092068
943.312300 0.131954
943.553400 1.597043
943.794600 2.080762
944.035700 0.689266
944.276900 -0.204223
944.518100 0.590796
944.759300 0.236305
945.000500 2.827369
945.241700 1.194260
945.482900 -0.088013
945.724100 0.337452
945.965300 -0.038043
946.206600 3.136086
946.447800 0.185962
946.689100 0.062167
946.930300 -0.251131
947.171600 0.168878
947.412800 0.623659
947.654100 0.620428
947.895400 0.916512
948.136700 0.123131
948.378000 -0.485377
948.619300 0.054070
948.860600 3.265290
949.101900 0.191103
949.343300 -0.109894
949.584600 -0.073076
949.825900 1.536627
950.067300 0.524771
950.308600 0.063138
950.550000 0.142288
950.791400 -0.383304
951.032700 -0.503656
951.274100 3.051538
951.515500 0.172944
951.756900 0.564271
951.998300 0.002975
952.239800 0.116320
952.481200 -0.017906
952.722600 0.177931
952.964000 0.566892
953.205500 -0.133450
953.446900 0.179935
953.688400 -0.158001
953.929900 0.707510
954.171300 -1.307605
954.412800 -0.249251
954.654300 3.226342
954.895800 3.012837
955.137300 1.076678
955.378800 -0.311967
955.620300 0.403766
955.861800 0.201364
956.103400 -0.042742
956.344900 0.279535
956.586500 -0.294152
956.828000 0.817725
957.069600 0.092099
957.311100 0.190915
957.552700 0.524771
957.794300 0.051109
958.035900 -0.024998
958.277500 -0.492175
958.519100 3.125806
958.760700 0.147458
959.002300 -0.165502
959.243900 0.023930
959.485600 1.350353
959.727200 0.551524
959.968800 0.370780
960.210500 2.960946
960.452200 2.840733
960.693800 -0.534851
960.935500 0.000000
961.177200 0.264264
961.418900 0.386041
961.660600 -0.003920
961.902300 -0.205570
962.144000 0.243269
962.385700 -0.316197
962.627400 0.102862
962.869200 2.719331
963.110900 3.003891
963.352700 2.840106
963.594400 0.694235
963.836200 0.264766
964.077900 0.244441
964.319700 -0.003093
964.561500 0.182446
964.803300 3.139249
965.045100 2.945961
965.286900 2.791691
965.528700 2.975432
965.770500 0.387733
966.012300 0.076090
966.254200 2.791691
966.496000 -0.374522
966.737900 1.206826
966.979700 0.357303
967.221600 0.213648
967.463400 3.189490
967.705300 3.152288
967.947200 1.096311
968.189100 2.510545
968.431000 0.204065
968.672900 -0.040445
968.914800 3.030195
969.156700 2.745075
969.398700 0.178856
969.640600 2.245513
969.882500 3.097604
970.124500 2.575188
970.366400 0.108800
970.608400 3.042969
970.850400 2.710117
971.092300 0.050943
971.334300 0.560587
971.576300 -0.118880
971.818300 0.261140
972.060300 3.062958
972.302300 0.435603
972.544300 2.745075
972.786400 0.558308
973.028400 0.659051
973.270400 0.939654
973.512500 3.082426
973.754500 0.434821
973.996600 0.196797
974.238700 3.228913
974.480700 -0.130829
974.722800 -0.026398
974.964900 0.159901
975.207000 0.202958
975.449100 2.338456
975.691200 1.842765
975.933300 2.853698
976.175500 -2.901458
976.417600 0.012930
976.659700 0.768918
976.901900 3.021603
977.144000 0.699807
977.386200 0.592786
977.628300 0.252046
977.870500 0.565218
978.112700 2.776701
978.354900 -0.286608
978.597100 -0.102566
978.839300 0.329455
979.081500 3.115278
979.323700 0.000000
979.565900 2.663701
979.808200 0.412810
980.050400 0.458444
980.292600 -0.183409
980.534900 0.860549
980.777100 0.657409
981.019400 2.752816
981.261700 1.997004
981.504000 3.348889
981.746200 -1.139429
981.988500 -0.249430
982.230800 2.805501
982.473100 0.409379
982.715500 3.218010
982.957800 2.799341
983.200100 1.226911
983.442400 -0.615424
983.684800 2.799341
983.927100 2.890421
984.169500 0.718255
984.411800 0.354772
984.654200 0.298024
984.896600 0.270541
985.139000 1.230449
985.381400 0.494370
985.623800 3.218010
985.866200 0.848114
986.108600 -2.152288
986.351000 -0.096203
986.593400 2.820201
986.835800 0.828835
987.078300 -0.069134
987.320700 2.940516
987.563200 -0.302757
987.805600 2.414973
988.048100 0.324106
988.290600 0.162727
988.533100 0.000000
988.775600 0.245658
989.018000 0.495142
989.260500 0.288400
989.503100 0.000000
989.745600 2.123852
989.988100 -1.568202
990.230600 3.097604
990.473200 2.935507
990.715700 3.257679
990.958200 -0.024028
991.200800 2.745075
991.443400 0.000000
991.685900 0.495274
991.928500 0.000000
992.171100 -0.389412
992.413700 3.125806
992.656300 0.613893
992.898900 2.866287
993.141500 0.458321
993.384100 0.559205
993.626700 3.093772
993.869400 -0.141036
994.112000 -0.471200
994.354700 3.165244
994.597300 0.410059
994.840000 0.000000
995.082600 -0.409855
995.325300 -0.664986
995.568000 2.884795
995.810700 2.127105
996.053400 2.866287
996.296100 1.259168
996.538800 3.042969
996.781500 3.171141
997.024200 -0.989005
997.267000 0.270553
997.509700 3.186674
997.752400 2.768638
997.995200 0.836309
998.237900 0.938140
998.480700 2.890421
998.723500 0.000000
998.966200 0.408394
999.209000 0.000000
999.451800 1.106264
999.694600 3.025715
999.937400 2.318063
1000.180200 -0.208604
1000.423000 0.107086
1000.665900 0.445551
1000.908700 -0.245275
1001.151500 -0.358462
1001.394400 2.745075
1001.637200 3.078457
1001.880100 0.778151
1002.123000 -0.222476
1002.365800 2.599883
1002.608700 0.275149
1002.851600 0.760996
1003.094500 3.086360
1003.337400 2.217484
1003.580300 0.000000
1003.823200 2.414973
1004.066100 -0.083829
1004.309100 2.719331
1004.552000 0.210641
1004.794900 0.847573
1005.037900 0.154396
1005.280800 1.237978
1005.523800 0.753802
1005.766700 0.321506
1006.009700 -0.053440
1006.252700 -2.699838
1006.495700 2.812913
1006.738700 0.000000
1006.981700 0.983798
1007.224700 2.653213
1007.467700 -0.994860
1007.710700 0.062885
1007.953800 0.180926
1008.196800 2.736397
1008.439800 0.980502
1008.682900 -0.463371
1008.925900 3.097604
1009.169000 0.286534
1009.412100 -3.107888
1009.655100 2.008600
1009.898200 3.108227
1010.141300 0.350184
1010.384400 -0.155071
1010.627500 0.283057
1010.870600 0.220268
1011.113700 0.162598
1011.356800 2.820201
1011.600000 1.591065
1011.843100 2.872156
1012.086300 0.000000
1012.329400 0.189741
1012.572600 -2.462398
1012.815700 2.783904
1013.058900 0.000000
1013.302100 3.003891
1013.545200 2.960946
1013.788400 3.108227
1014.031600 -3.046495
1014.274800 1.311754
1014.518000 3.161967
1014.761300 3.177536
1015.004500 -1.763428
1015.247700 0.510764
1015.490900 -2.699838
1015.734200 0.305301
1015.977400 0.552622
1016.220700 0.000000
1016.464000 2.853090
1016.707200 -0.839458
1016.950500 -0.447677
1017.193800 2.907949
1017.437100 -0.573158
1017.680400 0.250627
1017.923700 2.975891
1018.167000 0.550483
1018.410300 2.643453
1018.653600 2.913814
1018.896900 3.021603
1019.140300 3.030195
1019.383600 -0.088521
1019.627000 2.950851
1019.870300 2.465383
1020.113700 0.270801
1020.357100 2.575188
1020.600400 2.853698
1020.843800 0.225154
1021.087200 0.352631
1021.330600 0.000000
1021.574000 0.641024
1021.817400 0.000000
1022.060800 0.000000
1022.304200 0.000000
1022.547700 2.902003
1022.791100 2.432969
1023.034500 1.244712
