# Wavelength	Absorbance
197.780200 -0.329651
197.984200 2.907949
198.188200 -0.261871
198.392200 -0.526027
198.596300 0.630156
198.800300 -0.953314
199.004400 -0.194720
199.208500 -0.125824
199.412600 -0.110353
199.616800 -0.232663
199.820900 -0.544917
200.025100 0.308573
200.229200 -0.760899
200.433400 0.703249
200.637600 2.745075
200.841800 -0.294450
201.046100 -0.151568
201.250300 0.719456
201.454600 0.167814
201.658900 0.078025
201.863100 -0.352768
202.067400 0.082816
202.271800 -0.033333
202.476100 -0.187692
202.680500 -0.520156
202.884800 0.993686
203.089200 1.955447
203.293600 -0.265225
203.498000 -0.105832
203.702400 2.336460
203.906900 -1.168063
204.111300 0.000000
204.315800 0.031997
204.520300 -0.021261
204.724800 -0.525564
204.929300 -0.614101
205.133800 0.416165
205.338400 0.105872
205.543000 0.334477
205.747500 2.682145
205.952100 -0.118400
206.156700 0.578262
206.361400 -3.166430
206.566000 -0.490086
206.770600 0.373018
206.975300 2.294466
207.180000 -2.374224
207.384700 2.587711
207.589400 -3.160168
207.794100 0.599193
207.998900 -0.591569
208.203600 3.152288
208.408400 0.161252
208.613200 2.820201
208.818000 -0.603445
209.022800 -0.281383
209.227600 0.204251
209.432500 0.230342
209.637300 2.752816
209.842200 -0.697645
210.047100 -0.123036
210.252000 2.053078
210.456900 -0.080070
210.661800 0.599012
210.866800 -0.314632
211.071800 -0.086125
211.276700 0.211592
211.481700 2.736397
211.686700 0.176091
211.891800 -0.356950
212.096800 0.486226
212.301800 -0.042053
212.506900 0.414598
212.712000 0.328182
212.917100 -0.009186
213.122200 1.787106
213.327300 -0.055340
213.532500 -3.061075
213.737600 1.104613
213.942800 -1.451567
214.148000 -0.387673
214.353200 -3.160168
214.558400 0.093441
214.763600 1.532896
214.968900 0.059569
215.174100 3.104487
215.379400 -2.943000
215.584700 2.846955
215.790000 -0.296043
215.995300 2.820201
216.200700 2.806180
216.406000 -0.411231
216.611400 -0.481217
216.816800 1.754603
217.022200 -0.765679
217.227600 3.086360
217.433000 -0.436569
217.638400 -0.100092
217.843900 -0.094481
218.049400 -2.569374
218.254800 0.597474
218.460300 -0.090389
218.665900 0.763428
218.871400 0.847127
219.076900 0.166865
219.282500 0.085885
219.488100 -0.021653
219.693600 2.783904
219.899200 0.472456
220.104900 -0.005697
220.310500 -0.982460
220.516100 -3.213783
220.721800 -0.522120
220.927500 0.172420
221.133200 2.902003
221.338900 2.902003
221.544600 -0.252034
221.750300 0.114627
221.956100 -0.410234
222.161800 2.338456
222.367600 0.564979
222.573400 2.643453
222.779200 -2.823474
222.985000 0.000000
223.190900 0.321094
223.396700 2.621176
223.602600 -0.340671
223.808500 0.249258
224.014400 -0.099578
224.220300 -0.056604
224.426200 -0.428036
224.632200 2.727541
224.838100 -0.395361
225.044100 0.510198
225.250100 1.471047
225.456100 0.449093
225.662100 -0.480817
225.868100 -0.604484
226.074200 -0.320819
226.280200 -2.887054
226.486300 -0.085518
226.692400 -2.305351
226.898500 0.048325
227.104600 -0.750465
227.310700 0.213209
227.516900 0.038600
227.723000 -1.176327
227.929200 0.176213
228.135400 3.074816
228.341600 -0.491061
228.547800 3.108227
228.754100 0.272302
228.960300 2.245513
229.166600 -2.714330
229.372900 -0.212296
229.579100 0.259801
229.785500 -0.209610
229.991800 -1.141674
230.198100 -0.154812
230.404500 1.963788
230.610800 3.003891
230.817200 -3.019116
231.023600 0.373225
231.230000 -0.126513
231.436400 -0.313392
231.642900 -0.441667
231.849300 -0.374739
232.055800 -1.262777
232.262300 0.119955
232.468800 -0.610333
232.675300 -0.107992
232.881800 2.599883
233.088400 -0.511162
233.294900 -0.422900
233.501500 -0.300213
233.708100 -2.677607
233.914700 -0.252352
234.121300 0.000000
234.327900 -0.322288
234.534600 0.258899
234.741300 0.401248
234.947900 -0.028526
235.154600 -0.056348
235.361300 0.285587
235.568000 -0.039060
235.774800 0.930364
235.981500 0.358173
236.188300 -3.134177
236.395100 0.190006
236.601800 -2.887054
236.808700 0.302935
237.015500 -0.030690
237.222300 -0.412533
237.429200 0.877900
237.636000 -0.247511
237.842900 -1.487994
238.049800 -0.013919
238.256700 -0.603024
238.463600 -0.231794
238.670600 0.312800
238.877500 0.008152
239.084500 -3.120245
239.291500 0.078975
239.498500 -0.737211
239.705500 0.385774
239.912500 1.845098
240.119500 -1.614079
240.326600 0.309518
240.533700 -1.079181
240.740700 -0.202298
240.947800 -0.260812
241.154900 0.671795
241.362100 0.106926
241.569200 0.115261
241.776400 -0.077510
241.983500 -0.103151
242.190700 0.858521
242.397900 -2.921686
242.605100 -0.312214
242.812400 2.587711
243.019600 -0.129144
243.226900 -0.176937
243.434100 -0.259319
243.641400 -0.585616
243.848700 -0.282290
244.056000 0.000000
244.263400 -0.024394
244.470700 3.082785
244.678100 0.013499
244.885400 0.180546
245.092800 -0.192916
245.300200 -0.955299
245.507600 0.493051
245.715100 0.033328
245.922500 0.139070
246.130000 -1.579111
246.337500 0.418632
246.544900 2.396199
246.752400 0.132666
246.960000 3.165244
247.167500 -0.020155
247.375000 -3.166430
247.582600 0.138661
247.790200 -0.672098
247.997800 0.456341
248.205400 3.262925
248.413000 -0.014316
248.620600 -0.095933
248.828300 0.360122
249.035900 -0.022479
249.243600 0.161298
249.451300 0.169121
249.659000 0.164810
249.866700 -0.140575
250.074500 3.226342
250.282200 3.189490
250.490000 -0.203189
250.697800 0.642835
250.905600 2.480007
251.113400 0.360556
251.321200 0.431045
251.529000 -1.257632
251.736900 1.445143
251.944700 3.186674
252.152600 3.289589
252.360500 -0.126839
252.568400 0.046808
252.776300 -0.584783
252.984300 -0.328190
253.192200 0.307820
253.400200 0.072276
253.608200 0.055815
253.816200 3.282396
254.024200 1.354225
254.232200 -0.661667
254.440200 -3.160168
254.648300 -0.582226
254.856400 -0.703608
255.064400 2.775974
255.272500 3.097604
255.480600 0.756524
255.688800 -3.127105
255.896900 -0.183589
256.105100 0.071098
256.313200 -0.257484
256.521400 -0.306808
256.729600 -0.140715
256.937800 0.198306
257.146000 0.153815
257.354300 -3.113275
257.562500 0.816730
257.770800 0.000000
257.979100 -0.148063
258.187400 0.102196
258.395700 -0.058037
258.604000 0.184595
258.812400 0.222722
259.020700 -0.050516
259.229100 -0.120012
259.437500 0.125858
259.645900 0.255383
259.854300 -0.122779
260.062700 3.125481
260.271100 -0.538992
260.479600 0.580408
260.688100 -0.336432
260.896500 0.146662
261.105000 -1.016286
261.313500 -0.455464
261.522100 0.526752
261.730600 -0.380580
261.939200 2.701568
262.147700 -0.144283
262.356300 -0.187399
262.564900 -0.056728
262.773500 -0.198780
262.982200 0.255383
263.190800 -3.190612
263.399500 -0.023368
263.608100 -0.206989
263.816800 -0.049590
264.025500 -0.557077
264.234200 -1.113014
264.442900 -0.711845
264.651700 -0.056211
264.860400 0.093384
265.069200 -0.179041
265.278000 0.225416
265.486800 2.975891
265.695600 -0.602829
265.904400 -0.215579
266.113300 -0.540939
266.322100 0.062032
266.531000 -0.852901
266.739900 -0.742163
266.948800 3.125806
267.157700 -0.509481
267.366600 3.055378
267.575500 -0.495787
267.784500 -0.563046
267.993500 -0.171673
268.202400 2.970812
268.411400 0.428317
268.620500 -0.299900
268.829500 -0.390456
269.038500 -0.572505
269.247600 -0.145973
269.456600 -1.104675
269.665700 -0.087406
269.874800 -0.246404
270.083900 1.736759
270.293100 -2.517196
270.502200 -0.026447
270.711400 -0.892011
270.920500 0.137428
271.129700 -0.127848
271.338900 0.205520
271.548100 2.691965
271.757300 0.076918
271.966600 -0.128695
272.175800 1.019931
272.385100 0.418250
272.594400 -0.113407
272.803700 0.134548
273.013000 -0.367090
273.222300 0.214440
273.431600 0.859893
273.641000 3.209783
273.850400 2.701568
274.059700 -0.250492
274.269100 -0.026013
274.478500 1.070038
274.688000 -0.001137
274.897400 0.208276
275.106900 -1.105292
275.316300 0.397367
275.525800 0.204343
275.735300 0.000000
275.944800 0.251342
276.154300 -0.471419
276.363900 0.755159
276.573400 0.016632
276.783000 -0.347562
276.992600 0.277581
277.202200 -0.112893
277.411800 0.018337
277.621400 -0.392704
277.831000 0.145468
278.040700 0.499930
278.250300 -0.470278
278.460000 0.677829
278.669700 0.776338
278.879400 -0.225042
279.089100 -0.229721
279.298900 -0.425713
279.508600 0.230531
279.718400 0.385715
279.928100 -3.196453
280.137900 0.123706
280.347700 0.489442
280.557600 0.974174
280.767400 -0.127413
280.977200 -0.458663
281.187100 -2.910091
281.397000 0.116777
281.606900 -2.204120
281.816800 1.009274
282.026700 -0.795880
282.236600 -0.267213
282.446600 2.924279
282.656500 -3.326541
282.866500 -0.342486
283.076500 -0.808911
283.286500 0.172278
283.496500 -0.135830
283.706500 -0.129218
283.916600 -0.135014
284.126600 0.845098
284.336700 0.660790
284.546800 2.587711
284.756900 3.025715
284.967000 -0.209665
285.177100 0.219495
285.387300 -2.714330
285.597400 -0.173578
285.807600 -0.855619
286.017800 0.384155
286.228000 -2.569374
286.438200 0.334477
286.648400 0.423321
286.858700 0.246173
287.068900 2.760422
287.279200 -0.319475
287.489500 -0.809819
287.699800 0.481358
287.910100 0.888783
288.120400 -0.166508
288.330800 -0.589452
288.541100 0.342654
288.751500 -0.375802
288.961900 2.813581
289.172300 -3.053078
289.382700 0.651571
289.593100 0.297334
289.803500 -2.932474
290.014000 -0.221758
290.224500 -0.113418
290.434900 -2.910091
290.645400 0.360658
290.855900 0.083839
291.066500 -0.158147
291.277000 -0.300639
291.487500 -0.378729
291.698100 -0.410051
291.908700 -0.680660
292.119300 0.048885
292.329900 -0.228408
292.540500 -0.348287
292.751100 -0.157106
292.961800 -2.748188
293.172400 0.238960
293.383100 -2.887054
293.593800 -0.033000
293.804500 2.495544
294.015200 -0.383154
294.226000 -1.986772
294.436700 -0.253738
294.647500 -0.055399
294.858200 0.279632
295.069000 0.797700
295.279800 -0.607012
295.490600 0.000000
295.701500 0.048885
295.912300 0.232752
296.123200 0.438168
296.334000 2.719331
296.544900 0.441747
296.755800 0.358165
296.966700 -0.507149
297.177700 0.330011
297.388600 0.220673
297.599500 -0.921099
297.810500 0.215197
298.021500 0.185904
298.232500 0.119011
298.443500 -0.296576
298.654500 -0.068469
298.865600 0.360883
299.076600 -0.511963
299.287700 0.000000
299.498800 -0.200449
299.709900 0.153815
299.921000 0.181439
300.132100 -0.081625
300.343200 0.251330
300.554400 -0.025807
300.765500 -0.551477
300.976700 -2.257679
301.187900 0.309303
301.399100 -0.352849
301.610300 -0.205689
301.821500 0.217371
302.032800 0.511201
302.244100 0.016150
302.455300 -0.001385
302.666600 0.675944
302.877900 0.018170
303.089200 -0.479022
303.300600 0.055968
303.511900 0.333322
303.723300 -0.202826
303.934600 2.884795
304.146000 -2.029963
304.357400 -0.520307
304.568800 0.329759
304.780300 0.886937
304.991700 0.053029
305.203100 -0.881973
305.414600 3.198382
305.626100 -0.128780
305.837600 -0.089356
306.049100 -0.260655
306.260600 1.532639
306.472200 -0.853477
306.683700 -0.244651
306.895300 2.575188
307.106900 0.278448
307.318400 -0.179155
307.530100 0.163943
307.741700 2.806180
307.953300 2.253055
308.165000 -2.658011
308.376600 0.228661
308.588300 0.626343
308.800000 -0.064762
309.011700 0.378152
309.223400 0.238752
309.435100 -0.503027
309.646900 -0.092368
309.858600 3.054996
310.070400 -0.166082
310.282200 -0.810521
310.494000 0.354656
310.705800 -0.112831
310.917600 -0.193524
311.129500 -0.244113
311.341300 -0.074992
311.553200 0.046236
311.765100 0.344065
311.977000 0.526752
312.188900 -0.018279
312.400800 3.030600
312.612700 0.869822
312.824700 3.292034
313.036600 0.185837
313.248600 0.410348
313.460600 -0.019551
313.672600 0.388027
313.884600 -0.098332
314.096700 -0.363432
314.308700 0.483850
314.520800 0.151552
314.732800 0.282532
314.944900 0.758738
315.157000 0.293932
315.369200 0.424774
315.581300 -0.037459
315.793400 2.653213
316.005600 0.234231
316.217700 0.157903
316.429900 1.267496
316.642100 0.001773
316.854300 0.150772
317.066600 0.255273
317.278800 0.484666
317.491100 1.120407
317.703300 0.134044
317.915600 3.296446
318.127900 0.291945
318.340200 3.097604
318.552500 0.540943
318.764900 -0.132128
318.977200 0.124358
319.189600 0.028894
319.401900 3.427324
319.614300 0.117914
319.826700 -0.220004
320.039200 0.224709
320.251600 1.316640
320.464000 3.336260
320.676500 0.098860
320.889000 -0.456304
321.101400 0.082657
321.313900 0.887022
321.526500 0.879310
321.739000 1.071226
321.951500 1.486131
322.164100 0.159452
322.376600 3.460447
322.589200 -0.056601
322.801800 0.291139
323.014400 0.498244
323.227000 0.456151
323.439700 3.437433
323.652300 3.471292
323.865000 0.015103
324.077700 0.178803
324.290400 0.183164
324.503100 0.646991
324.715800 0.702798
324.928500 3.425697
325.141200 0.897036
325.354000 1.278414
325.566800 0.094747
325.779600 0.227715
325.992400 0.238069
326.205200 0.422332
326.418000 0.564271
326.630800 0.731461
326.843700 0.822294
327.056600 0.099694
327.269400 0.580016
327.482300 0.329774
327.695200 0.562489
327.908200 0.545080
328.121100 0.795918
328.334000 0.611126
328.547000 0.600060
328.760000 3.502700
328.973000 1.374863
329.186000 0.313160
329.399000 0.409287
329.612000 0.536980
329.825100 3.485153
330.038100 0.421259
330.251200 0.452627
330.464300 0.656997
330.677400 1.903090
330.890500 0.473420
331.103600 0.324253
331.316700 0.328735
331.529900 3.658298
331.743100 0.375706
331.956200 0.947010
332.169400 0.558720
332.382600 0.824520
332.595900 0.310847
332.809100 1.181520
333.022300 1.608835
333.235600 1.017518
333.448900 0.712235
333.662200 0.468559
333.875500 0.512516
334.088800 3.518251
334.302100 1.026191
334.515400 3.647089
334.728800 0.521626
334.942200 0.355579
335.155500 0.160780
335.368900 1.499186
335.582300 1.292574
335.795800 0.529601
336.009200 0.659605
336.222700 1.096863
336.436100 0.656330
336.649600 0.436304
336.863100 3.676053
337.076600 3.787035
337.290100 0.465156
337.503600 1.685326
337.717200 0.568678
337.930700 0.859989
338.144300 3.781037
338.357900 3.656290
338.571500 0.828615
338.785100 0.582961
338.998700 0.686652
339.212400 0.905221
339.426000 0.460993
339.639700 0.902343
339.853300 0.737837
340.067000 0.831297
340.280700 0.569142
340.494500 0.966600
340.708200 1.397238
340.921900 3.796644
341.135700 0.402435
341.349500 0.540655
341.563300 0.473049
341.777100 3.818094
341.990900 0.839054
342.204700 0.591250
342.418500 1.382093
342.632400 0.717186
342.846300 3.839164
343.060100 0.586832
343.274000 0.516259
343.487900 1.614069
343.701900 0.427642
343.915800 0.484244
344.129700 0.804684
344.343700 0.733075
344.557700 1.011768
344.771700 1.172205
344.985700 0.787397
345.199700 0.935759
345.413700 0.440123
345.627700 0.800608
345.841800 0.589488
346.055900 1.196112
346.269900 1.120456
346.484000 1.240604
346.698100 1.030501
346.912300 0.940249
347.126400 0.709559
347.340600 0.966690
347.554700 3.883264
347.768900 1.154733
347.983100 0.888979
348.197300 3.889246
348.411500 0.585744
348.625700 0.620754
348.840000 0.732185
349.054200 1.145768
349.268500 1.020416
349.482800 0.552954
349.697100 0.837416
349.911400 0.885720
350.125700 0.776394
350.340000 0.918753
350.554400 1.115968
350.768700 0.828588
350.983100 1.019095
351.197500 0.735431
351.411900 0.992326
351.626300 0.893842
351.840700 0.856841
352.055200 3.931966
352.269600 0.628651
352.484100 1.029165
352.698600 1.502934
352.913100 1.379661
353.127600 3.993348
353.342100 0.895188
353.556600 2.007941
353.771200 1.864520
353.985800 0.657861
354.200300 1.944126
354.414900 0.796402
354.629500 1.835261
354.844100 0.738037
355.058800 3.971879
355.273400 1.275012
355.488100 0.764346
355.702700 0.794995
355.917400 3.938920
356.132100 1.093841
356.346800 1.558754
356.561500 0.837934
356.776300 1.137371
356.991000 1.255703
357.205800 1.729585
357.420600 0.774419
357.635300 1.525679
357.850100 4.018617
358.065000 1.154978
358.279800 0.540743
358.494600 0.846720
358.709500 1.002579
358.924300 1.519433
359.139200 0.954997
359.354100 3.988202
359.569000 1.034407
359.783900 1.065577
359.998900 0.706312
360.213800 4.019947
360.428800 0.853295
360.643800 1.039498
360.858700 0.593404
361.073700 1.066920
361.288800 0.662837
361.503800 0.885629
361.718800 1.214879
361.933900 0.830634
362.148900 1.034143
362.364000 1.737034
362.579100 1.212812
362.794200 0.698711
363.009300 1.044493
363.224500 0.994578
363.439600 0.864112
363.654800 4.034989
363.869900 0.893987
364.085100 4.019947
364.300300 0.598389
364.515500 1.012473
364.730800 1.297922
364.946000 1.133921
365.161200 0.802319
365.376500 1.338172
365.591800 1.072081
365.807100 4.020403
366.022400 1.633202
366.237700 4.078022
366.453000 0.814287
366.668400 1.572179
366.883700 1.035876
367.099100 0.964348
367.314500 1.009328
367.529900 0.881338
367.745300 1.141550
367.960700 2.017493
368.176100 0.816839
368.391600 4.101850
368.607000 1.151581
368.822500 0.794255
369.038000 1.946053
369.253500 0.809925
369.469000 1.191247
369.684500 4.136974
369.900100 0.972098
370.115600 1.217893
370.331200 4.097847
370.546800 1.680763
370.762400 0.759828
370.978000 1.257956
371.193600 0.786705
371.409200 1.226072
371.624900 1.412521
371.840500 1.757883
372.056200 0.982194
372.271900 0.806001
372.487600 1.046006
372.703300 4.129915
372.919000 0.947675
373.134800 4.137671
373.350500 1.353317
373.566300 1.406449
373.782000 0.970097
373.997800 1.003068
374.213600 0.911701
374.429400 0.948290
374.645300 1.439983
374.861100 1.194189
375.077000 1.101068
375.292800 0.980113
375.508700 0.946009
375.724600 1.247271
375.940500 1.285930
376.156400 1.444138
376.372400 0.947240
376.588300 1.149739
376.804300 4.234720
377.020300 0.957101
377.236200 1.448766
377.452200 2.283045
377.668200 1.351529
377.884300 1.024829
378.100300 1.225508
378.316400 1.560290
378.532400 0.944487
378.748500 1.379669
378.964600 1.267521
379.180700 4.308394
379.396800 1.241548
379.612900 1.037062
379.829100 1.852028
380.045200 2.298988
380.261400 1.030209
380.477600 0.899625
380.693800 1.059979
380.910000 1.884772
381.126200 1.073391
381.342400 1.192854
381.558700 0.889054
381.774900 1.315479
381.991200 1.191043
382.207500 4.314668
382.423800 1.039329
382.640100 1.331253
382.856400 1.725386
383.072800 1.444440
383.289100 2.146922
383.505500 1.127285
383.721900 0.907335
383.938200 0.960166
384.154600 1.217994
384.371100 4.337779
384.587500 1.511835
384.803900 1.403574
385.020400 1.263842
385.236800 1.319703
385.453300 1.047768
385.669800 1.162013
385.886300 1.188142
386.102800 4.360120
386.319400 2.150392
386.535900 1.450286
386.752500 1.478490
386.969000 1.709661
387.185600 1.121325
387.402200 1.002270
387.618800 1.091795
387.835500 1.255534
388.052100 1.042240
388.268700 0.898203
388.485400 0.994011
388.702100 1.206734
388.918800 1.146145
389.135500 1.008752
389.352200 1.002443
389.568900 0.982852
389.785600 0.828395
390.002400 0.748306
390.219200 0.919418
390.435900 0.837492
390.652700 0.837876
390.869500 1.113830
391.086300 0.801206
391.303200 1.047720
391.520000 0.934351
391.736900 0.765925
391.953700 0.699681
392.170600 0.783499
392.387500 0.656555
392.604400 0.751840
392.821300 0.704193
393.038300 0.813005
393.255200 0.626691
393.472200 0.737126
393.689100 0.544893
393.906100 0.711700
394.123100 0.611799
394.340100 0.624771
394.557200 0.650567
394.774200 0.651325
394.991200 0.569246
395.208300 0.549222
395.425400 0.497782
395.642500 0.613490
395.859600 0.609256
396.076700 0.560405
396.293800 0.539897
396.510900 0.487692
396.728100 0.500582
396.945300 0.497463
397.162400 0.536753
397.379600 0.483453
397.596800 0.424311
397.814000 0.496210
398.031300 0.433514
398.248500 0.453319
398.465800 0.459682
398.683000 0.432151
398.900300 0.430907
399.117600 0.448901
399.334900 0.416073
399.552200 0.389134
399.769600 0.427022
399.986900 0.424674
400.204300 0.401597
400.421600 0.434171
400.639000 0.383430
400.856400 0.355831
401.073800 0.332240
401.291200 0.399631
401.508700 0.395320
401.726100 0.344595
401.943600 0.323928
402.161000 0.335786
402.378500 0.374871
402.596000 0.327595
402.813500 0.296033
403.031000 0.292232
403.248600 0.310544
403.466100 0.282885
403.683700 0.302131
403.901300 0.340209
404.118900 0.274219
404.336500 0.280786
404.554100 0.330416
404.771700 0.297184
404.989300 0.257984
405.207000 0.322366
405.424600 0.234160
405.642300 0.309371
405.860000 0.283060
406.077700 0.271829
406.295400 0.306442
406.513100 0.259655
406.730900 0.244540
406.948600 0.303089
407.166400 0.308672
407.384200 0.255613
407.602000 0.272006
407.819800 0.243936
408.037600 0.299879
408.255400 0.252708
408.473300 0.221899
408.691100 0.244010
408.909000 0.290203
409.126900 0.227500
409.344800 0.248481
409.562700 0.240087
409.780600 0.284521
409.998500 0.269550
410.216500 0.214582
410.434400 0.258996
410.652400 0.284496
410.870400 0.237166
411.088400 0.223877
411.306400 0.224866
411.524400 0.218165
411.742400 0.214230
411.960500 0.210038
412.178500 0.223126
412.396600 0.238786
412.614700 0.213256
412.832800 0.224916
413.050900 0.274370
413.269000 0.208673
413.487100 0.242394
413.705300 0.207106
413.923400 0.216377
414.141600 0.216556
414.359800 0.197034
414.578000 0.210173
414.796200 0.225251
415.014400 0.187665
415.232600 0.186949
415.450900 0.228612
415.669200 0.204450
415.887400 0.215934
416.105700 0.218862
416.324000 0.197547
416.542300 0.212010
416.760600 0.167194
416.979000 0.205707
417.197300 0.164380
417.415700 0.201394
417.634100 0.199037
417.852400 0.210290
418.070800 0.219584
418.289300 0.189813
418.507700 0.198401
418.726100 0.189671
418.944600 0.184199
419.163000 0.151629
419.381500 0.179313
419.600000 0.203750
419.818500 0.204104
420.037000 0.179905
420.255500 0.176323
420.474100 0.208181
420.692600 0.244375
420.911200 0.178703
421.129800 0.222549
421.348300 0.204010
421.566900 0.216645
421.785600 0.188573
422.004200 0.216668
422.222800 0.180697
422.441500 0.216484
422.660100 0.206832
422.878800 0.213416
423.097500 0.189666
423.316200 0.201320
423.534900 0.188599
423.753600 0.232302
423.972400 0.200609
424.191100 0.196319
424.409900 0.228061
424.628700 0.225038
424.847500 0.234160
425.066300 0.198753
425.285100 0.182955
425.503900 0.212179
425.722800 0.203788
425.941600 0.184642
426.160500 0.182362
426.379300 0.204025
426.598200 0.212900
426.817100 0.219018
427.036100 0.205168
427.255000 0.183589
427.473900 0.222149
427.692900 0.202216
427.911800 0.227296
428.130800 0.243487
428.349800 0.208927
428.568800 0.209059
428.787800 0.189895
429.006800 0.234005
429.225900 0.186612
429.444900 0.243149
429.664000 0.217973
429.883100 0.248080
430.102200 0.236859
430.321300 0.227301
430.540400 0.218331
430.759500 0.231388
430.978700 0.228548
431.197800 0.242222
431.417000 0.221709
431.636200 0.256140
431.855300 0.228703
432.074500 0.252387
432.293800 0.228251
432.513000 0.248294
432.732200 0.210846
432.951500 0.252168
433.170700 0.236962
433.390000 0.226110
433.609300 0.251002
433.828600 0.232764
434.047900 0.238746
434.267300 0.259166
434.486600 0.239944
434.705900 0.212886
434.925300 0.251087
435.144700 0.231663
435.364100 0.243299
435.583500 0.236413
435.802900 0.208750
436.022300 0.287638
436.241800 0.229623
436.461200 0.271168
436.680700 0.260516
436.900100 0.244316
437.119600 0.259335
437.339100 0.269689
437.558600 0.255503
437.778200 0.247883
437.997700 0.228588
438.217300 0.241470
438.436800 0.248503
438.656400 0.272453
438.876000 0.274236
439.095600 0.232490
439.315200 0.306998
439.534800 0.234717
439.754500 0.236857
439.974100 0.286388
440.193800 0.270914
440.413500 0.291934
440.633100 0.267932
440.852800 0.286772
441.072500 0.286794
441.292300 0.318308
441.512000 0.293222
441.731800 0.312083
441.951500 0.267525
442.171300 0.271347
442.391100 0.279415
442.610900 0.313499
442.830700 0.273951
443.050500 0.338430
443.270300 0.277877
443.490200 0.285788
443.710100 0.288126
443.929900 0.313046
444.149800 0.301805
444.369700 0.308696
444.589600 0.311955
444.809500 0.303374
445.029500 0.291878
445.249400 0.288986
445.469400 0.300639
445.689400 0.299810
445.909300 0.318182
446.129300 0.320410
446.349300 0.294308
446.569400 0.329940
446.789400 0.311278
447.009400 0.351220
447.229500 0.321213
447.449600 0.337293
447.669600 0.320125
447.889700 0.320749
448.109800 0.323048
448.330000 0.351837
448.550100 0.332324
448.770200 0.355732
448.990400 0.373962
449.210600 0.350927
449.430700 0.361309
449.650900 0.328254
449.871100 0.387640
450.091400 0.347246
450.311600 0.354055
450.531800 0.388411
450.752100 0.358576
450.972400 0.342096
451.192600 0.385145
451.412900 0.406784
451.633200 0.369653
451.853500 0.385400
452.073900 0.355988
452.294200 0.414210
452.514600 0.371247
452.734900 0.340471
452.955300 0.379990
453.175700 0.382110
453.396100 0.376996
453.616500 0.385295
453.836900 0.397084
454.057400 0.381273
454.277800 0.362696
454.498300 0.402759
454.718800 0.392576
454.939300 0.414443
455.159700 0.431545
455.380300 0.463213
455.600800 0.420110
455.821300 0.395892
456.041900 0.409011
456.262400 0.455791
456.483000 0.453422
456.703600 0.449835
456.924200 0.431445
457.144800 0.474668
457.365400 0.429750
457.586000 0.428390
457.806700 0.396175
458.027400 0.469267
458.248000 0.424088
458.468700 0.477644
458.689400 0.476242
458.910100 0.446955
459.130800 0.486356
459.351600 0.466915
459.572300 0.474929
459.793100 0.479949
460.013800 0.475635
460.234600 0.508178
460.455400 0.465577
460.676200 0.510548
460.897000 0.484571
461.117800 0.515472
461.338700 0.465950
461.559500 0.503938
461.780400 0.494467
462.001300 0.534013
462.222200 0.503162
462.443100 0.524401
462.664000 0.464877
462.884900 0.517660
463.105900 0.512283
463.326800 0.541650
463.547800 0.561780
463.768700 0.528112
463.989700 0.636023
464.210700 0.510707
464.431700 0.551879
464.652800 0.545624
464.873800 0.584532
465.094800 0.582892
465.315900 0.565210
465.537000 0.560483
465.758100 0.588719
465.979200 0.595873
466.200300 0.566683
466.421400 0.583258
466.642500 0.637809
466.863700 0.593730
467.084800 0.606916
467.306000 0.555497
467.527200 0.596490
467.748400 0.623677
467.969600 0.622844
468.190800 0.636621
468.412000 0.663553
468.633300 0.643036
468.854500 0.637361
469.075800 0.623868
469.297000 0.686232
469.518300 0.659193
469.739600 0.620398
469.961000 0.561916
470.182300 0.644222
470.403600 0.697328
470.625000 0.628787
470.846300 0.669640
471.067700 0.638344
471.289100 0.678104
471.510500 0.600324
471.731900 0.612788
471.953300 0.566696
472.174800 0.641614
472.396200 0.666096
472.617700 0.697120
472.839100 0.693893
473.060600 0.684587
473.282100 0.833277
473.503600 0.704274
473.725100 0.691209
473.946700 0.702395
474.168200 0.724597
474.389800 0.750225
474.611300 0.816932
474.832900 0.684730
475.054500 0.723278
475.276100 0.717918
475.497700 0.740729
475.719300 0.704693
475.941000 0.671693
476.162600 0.746734
476.384300 0.754463
476.606000 0.714120
476.827700 0.724239
477.049400 0.732223
477.271100 0.748824
477.492800 0.781784
477.714500 0.803717
477.936300 0.887502
478.158000 0.812691
478.379800 0.748432
478.601600 0.859076
478.823400 0.827040
479.045200 0.818289
479.267000 0.805461
479.488800 0.863534
479.710700 0.818393
479.932500 0.828041
480.154400 0.848149
480.376300 0.810061
480.598200 0.981446
480.820100 0.779191
481.042000 0.875186
481.263900 0.878155
481.485900 0.805314
481.707800 0.817972
481.929800 0.849282
482.151700 0.886518
482.373700 0.837868
482.595700 0.808779
482.817700 0.923019
483.039800 0.916112
483.261800 0.930097
483.483800 0.929573
483.705900 0.914794
483.928000 0.969942
484.150100 0.909848
484.372100 0.885177
484.594300 0.911207
484.816400 0.986593
485.038500 0.918296
485.260600 1.002216
485.482800 0.968721
485.705000 1.064584
485.927100 1.045228
486.149300 1.034098
486.371500 1.013618
486.593700 1.001265
486.816000 0.986377
487.038200 1.037895
487.260500 1.031723
487.482700 1.107388
487.705000 0.970932
487.927300 0.977221
488.149600 1.012132
488.371900 0.987653
488.594200 1.020987
488.816500 0.974458
489.038900 0.956866
489.261200 1.173557
489.483600 1.021789
489.706000 1.113985
489.928400 0.948266
490.150800 0.919756
490.373200 0.982562
490.595600 1.183195
490.818000 1.214549
491.040500 1.091083
491.263000 1.137726
491.485400 1.102108
491.707900 1.096408
491.930400 1.029738
492.152900 0.959936
492.375500 1.060753
492.598000 1.077935
492.820500 1.172065
493.043100 1.441839
493.265700 1.053955
493.488200 1.013582
493.710800 1.101552
493.933400 1.046952
494.156100 1.081808
494.378700 1.030336
494.601300 1.203749
494.824000 1.087968
495.046600 1.144481
495.269300 1.108298
495.492000 1.430808
495.714700 1.109792
495.937400 1.148991
496.160100 0.997409
496.382900 1.067783
496.605600 1.160659
496.828400 1.079577
497.051100 1.214682
497.273900 1.401133
497.496700 0.948659
497.719500 1.174234
497.942300 1.128692
498.165200 1.023842
498.388000 1.318993
498.610900 1.062650
498.833700 1.180570
499.056600 1.085850
499.279500 1.195502
499.502400 1.185807
499.725300 1.236167
499.948200 1.092778
500.171200 1.201684
500.394100 1.458120
500.617100 1.185083
500.840000 1.341896
501.063000 1.154781
501.286000 1.267349
501.509000 1.190811
501.732000 1.334692
501.955100 1.108066
502.178100 1.298411
502.401200 1.179801
502.624200 1.404187
502.847300 1.581784
503.070400 1.130091
503.293500 1.277800
503.516600 1.164119
503.739700 1.073268
503.962800 1.195733
504.186000 1.166672
504.409200 1.142169
504.632300 1.155983
504.855500 1.476397
505.078700 1.322886
505.301900 1.120986
505.525100 1.356317
505.748300 1.156995
505.971600 0.997380
506.194800 1.101075
506.418100 1.190854
506.641400 1.140415
506.864700 1.248010
507.088000 1.107409
507.311300 1.067216
507.534600 1.235935
507.757900 1.186085
507.981300 1.150400
508.204600 1.167185
508.428000 1.222005
508.651400 1.321997
508.874800 1.146808
509.098200 1.156693
509.321600 1.116338
509.545000 1.027752
509.768500 1.023591
509.991900 1.351218
510.215400 1.459533
510.438800 1.186583
510.662300 1.259941
510.885800 1.159063
511.109300 1.079243
511.332900 1.025272
511.556400 1.047570
511.779900 1.090183
512.003500 1.061710
512.227000 1.218005
512.450600 1.137600
512.674200 1.143563
512.897800 1.190403
513.121400 1.073469
513.345100 1.154691
513.568700 1.007886
513.792300 1.112492
514.016000 1.244586
514.239700 1.112191
514.463400 1.128640
514.687100 1.048021
514.910800 1.096008
515.134500 1.068613
515.358200 1.080806
515.581900 1.072443
515.805700 1.355080
516.029500 1.096840
516.253200 1.147299
516.477000 1.176720
516.700800 1.132456
516.924600 1.113902
517.148500 1.069631
517.372300 1.064674
517.596100 1.147718
517.820000 1.556919
518.043900 1.016681
518.267700 1.249301
518.491600 1.238133
518.715500 1.059804
518.939500 1.114445
519.163400 1.074954
519.387300 1.079460
519.611300 1.201133
519.835200 1.065521
520.059200 1.337049
520.283200 1.077919
520.507200 1.006026
520.731200 1.130972
520.955200 1.079106
521.179200 1.168161
521.403300 1.109941
521.627300 0.985252
521.851400 0.839389
522.075500 1.017483
522.299600 0.983728
522.523700 0.951471
522.747800 1.078934
522.971900 0.972586
523.196000 1.091762
523.420200 1.196043
523.644300 0.982732
523.868500 1.021689
524.092700 0.943378
524.316900 1.100058
524.541100 0.909265
524.765300 0.929564
524.989500 0.986709
525.213800 0.827460
525.438000 0.909281
525.662300 1.181945
525.886500 0.988399
526.110800 0.974617
526.335100 1.125851
526.559400 0.929848
526.783700 0.956530
527.008100 0.925435
527.232400 0.930667
527.456800 0.883792
527.681100 0.878807
527.905500 1.120426
528.129900 0.845051
528.354300 0.897355
528.578700 0.843107
528.803100 0.919982
529.027600 0.871456
529.252000 0.948296
529.476500 1.017255
529.700900 0.877488
529.925400 0.898448
530.149900 0.881191
530.374400 0.817891
530.598900 0.847538
530.823400 0.866713
531.048000 0.842754
531.272500 0.883980
531.497100 0.931403
531.721700 0.821491
531.946200 0.755949
532.170800 0.827793
532.395400 0.880346
532.620000 0.815836
532.844700 0.825912
533.069300 0.911157
533.294000 0.851507
533.518600 0.848274
533.743300 0.769270
533.968000 0.824294
534.192700 0.747842
534.417400 0.833764
534.642100 0.884709
534.866800 0.832278
535.091600 0.767698
535.316300 0.770552
535.541100 0.788131
535.765900 0.788522
535.990700 0.823918
536.215500 0.684530
536.440300 0.803308
536.665100 0.809444
536.889900 0.712528
537.114800 0.679506
537.339600 0.705375
537.564500 0.772562
537.789400 0.744251
538.014300 0.643801
538.239200 0.736046
538.464100 0.788641
538.689000 0.685983
538.913900 0.633356
539.138900 0.678507
539.363800 0.651277
539.588800 0.704187
539.813800 0.744740
540.038800 0.682070
540.263800 0.602834
540.488800 0.691364
540.713800 0.620640
540.938900 0.655255
541.163900 0.714844
541.389000 0.632344
541.614000 0.622495
541.839100 0.648540
542.064200 0.614270
542.289300 0.651553
542.514400 0.639393
542.739600 0.669751
542.964700 0.636618
543.189900 0.612614
543.415000 0.579750
543.640200 0.656347
543.865400 0.577554
544.090600 0.624095
544.315800 0.579819
544.541000 0.584497
544.766200 0.548720
544.991500 0.568910
545.216700 0.599334
545.442000 0.587590
545.667300 0.547196
545.892600 0.527253
546.117900 0.580886
546.343200 0.597580
546.568500 0.544077
546.793800 0.529348
547.019200 0.547631
547.244500 0.554969
547.469900 0.493875
547.695300 0.474019
547.920600 0.563305
548.146000 0.505476
548.371500 0.505482
548.596900 0.517164
548.822300 0.449515
549.047800 0.476025
549.273200 0.453734
549.498700 0.471399
549.724200 0.495961
549.949600 0.480283
550.175100 0.419180
550.400700 0.433397
550.626200 0.460133
550.851700 0.465956
551.077300 0.469561
551.302800 0.425304
551.528400 0.422452
551.754000 0.454671
551.979600 0.451022
552.205200 0.456946
552.430800 0.426827
552.656400 0.445487
552.882000 0.413254
553.107700 0.425068
553.333300 0.377115
553.559000 0.429904
553.784700 0.373644
554.010400 0.436862
554.236100 0.417220
554.461800 0.392083
554.687500 0.370688
554.913200 0.404243
555.139000 0.345435
555.364800 0.362959
555.590500 0.399036
555.816300 0.406567
556.042100 0.346446
556.267900 0.373762
556.493700 0.326581
556.719500 0.348309
556.945400 0.348803
557.171200 0.318177
557.397100 0.360597
557.623000 0.345856
557.848800 0.330692
558.074700 0.332014
558.300600 0.302958
558.526600 0.344274
558.752500 0.286154
558.978400 0.340026
559.204400 0.318607
559.430300 0.321608
559.656300 0.320473
559.882300 0.309551
560.108300 0.320138
560.334300 0.304618
560.560300 0.298206
560.786300 0.281779
561.012400 0.311530
561.238400 0.289531
561.464500 0.304242
561.690500 0.260113
561.916600 0.281295
562.142700 0.282922
562.368800 0.281199
562.594900 0.293002
562.821100 0.294373
563.047200 0.251765
563.273300 0.279390
563.499500 0.248078
563.725700 0.266860
563.951900 0.290367
564.178100 0.270546
564.404300 0.275934
564.630500 0.287568
564.856700 0.245285
565.082900 0.245157
565.309200 0.247234
565.535500 0.282003
565.761700 0.247055
565.988000 0.248249
566.214300 0.218957
566.440600 0.201241
566.666900 0.240912
566.893200 0.215799
567.119600 0.219202
567.345900 0.227537
567.572300 0.208074
567.798700 0.231896
568.025000 0.214492
568.251400 0.228882
568.477800 0.227120
568.704300 0.222038
568.930700 0.213138
569.157100 0.219748
569.383600 0.224598
569.610000 0.214285
569.836500 0.205654
570.063000 0.201535
570.289500 0.224238
570.516000 0.216912
570.742500 0.198038
570.969000 0.204170
571.195600 0.194251
571.422100 0.196287
571.648700 0.205132
571.875200 0.197001
572.101800 0.194025
572.328400 0.203642
572.555000 0.201778
572.781600 0.187242
573.008200 0.190530
573.234900 0.203100
573.461500 0.180385
573.688200 0.189572
573.914900 0.189399
574.141500 0.185706
574.368200 0.176576
574.594900 0.173727
574.821600 0.171654
575.048400 0.186114
575.275100 0.186491
575.501800 0.176989
575.728600 0.181812
575.955400 0.168531
576.182100 0.181100
576.408900 0.177339
576.635700 0.161575
576.862600 0.180315
577.089400 0.165293
577.316200 0.159085
577.543100 0.166677
577.769900 0.175114
577.996800 0.159872
578.223700 0.161314
578.450500 0.164775
578.677400 0.158190
578.904400 0.155805
579.131300 0.164355
579.358200 0.154510
579.585100 0.151155
579.812100 0.151584
580.039100 0.159036
580.266000 0.136540
580.493000 0.145788
580.720000 0.151443
580.947000 0.141038
581.174100 0.138423
581.401100 0.138394
581.628100 0.134835
581.855200 0.131643
582.082200 0.134337
582.309300 0.137394
582.536400 0.140676
582.763500 0.134213
582.990600 0.129832
583.217700 0.126272
583.444900 0.133280
583.672000 0.135314
583.899100 0.148431
584.126300 0.126612
584.353500 0.130114
584.580700 0.123066
584.807900 0.139780
585.035100 0.138348
585.262300 0.132401
585.489500 0.123918
585.716700 0.130231
585.944000 0.123942
586.171300 0.118838
586.398500 0.114612
586.625800 0.125898
586.853100 0.127988
587.080400 0.121988
587.307700 0.120765
587.535000 0.125053
587.762400 0.126220
587.989700 0.108302
588.217100 0.127711
588.444500 0.124515
588.671800 0.116460
588.899200 0.117626
589.126600 0.105196
589.354000 0.125349
589.581500 0.106661
589.808900 0.118057
590.036300 0.125272
590.263800 0.112137
590.491300 0.128493
590.718700 0.118672
590.946200 0.113356
591.173700 0.118738
591.401200 0.126298
591.628800 0.117477
591.856300 0.114684
592.083800 0.115654
592.311400 0.102927
592.538900 0.111389
592.766500 0.111693
592.994100 0.102999
593.221700 0.116859
593.449300 0.111529
593.676900 0.105471
593.904600 0.106811
594.132200 0.101711
594.359800 0.109779
594.587500 0.101020
594.815200 0.091426
595.042900 0.109885
595.270500 0.114325
595.498300 0.113876
595.726000 0.115893
595.953700 0.118399
596.181400 0.103793
596.409200 0.098440
596.636900 0.114454
596.864700 0.105206
597.092500 0.110584
597.320300 0.103843
597.548100 0.113864
597.775900 0.120096
598.003700 0.105353
598.231500 0.113025
598.459400 0.115634
598.687200 0.113525
598.915100 0.110408
599.143000 0.095696
599.370900 0.106051
599.598800 0.095757
599.826700 0.101415
600.054600 0.107824
600.282500 0.105205
600.510500 0.100876
600.738400 0.099917
600.966400 0.103894
601.194400 0.092232
601.422300 0.093836
601.650300 0.097505
601.878300 0.098689
602.106400 0.104916
602.334400 0.096447
602.562400 0.098510
602.790500 0.088080
603.018500 0.097993
603.246600 0.093101
603.474700 0.101041
603.702800 0.101780
603.930900 0.096027
604.159000 0.097209
604.387100 0.100064
604.615200 0.096503
604.843400 0.085140
605.071500 0.099835
605.299700 0.095880
605.527900 0.094305
605.756100 0.081194
605.984300 0.086561
606.212500 0.084088
606.440700 0.085112
606.668900 0.084879
606.897200 0.086486
607.125400 0.089749
607.353700 0.089803
607.581900 0.103604
607.810200 0.078613
608.038500 0.091729
608.266800 0.072701
608.495100 0.080740
608.723500 0.071470
608.951800 0.089141
609.180100 0.075842
609.408500 0.082933
609.636900 0.078069
609.865300 0.104732
610.093600 0.093104
610.322000 0.078717
610.550500 0.088575
610.778900 0.082824
611.007300 0.082334
611.235700 0.087100
611.464200 0.095937
611.692700 0.079172
611.921100 0.083810
612.149600 0.089329
612.378100 0.090515
612.606600 0.085396
612.835100 0.097492
613.063700 0.076536
613.292200 0.087147
613.520800 0.081222
613.749300 0.086980
613.977900 0.086792
614.206500 0.085472
614.435100 0.085831
614.663700 0.079872
614.892300 0.093468
615.120900 0.072852
615.349500 0.093598
615.578200 0.080731
615.806800 0.078005
616.035500 0.098829
616.264200 0.084547
616.492900 0.083003
616.721600 0.089480
616.950300 0.085705
617.179000 0.077677
617.407700 0.089922
617.636500 0.074220
617.865200 0.087142
618.094000 0.090512
618.322700 0.082050
618.551500 0.045596
618.780300 0.076160
619.009100 0.079216
619.237900 0.073820
619.466700 0.081686
619.695600 0.071604
619.924400 0.094029
620.153300 0.089163
620.382100 0.089558
620.611000 0.073777
620.839900 0.072207
621.068800 0.083468
621.297700 0.089265
621.526600 0.083437
621.755600 0.079265
621.984500 0.075019
622.213500 0.075576
622.442400 0.079265
622.671400 0.091339
622.900400 0.091561
623.129400 0.085443
623.358400 0.094110
623.587400 0.078484
623.816400 0.056604
624.045400 0.074259
624.274500 0.073689
624.503500 0.069315
624.732600 0.077993
624.961700 0.086356
625.190800 0.065579
625.419900 0.070936
625.649000 0.080796
625.878100 0.063543
626.107200 0.056745
626.336400 0.065328
626.565500 0.085956
626.794700 0.076438
627.023800 0.078149
627.253000 0.075739
627.482200 0.059809
627.711400 0.078938
627.940600 0.099854
628.169800 0.057748
628.399100 0.069982
628.628300 0.073961
628.857600 0.073447
629.086800 0.083127
629.316100 0.074222
629.545400 0.056239
629.774700 0.089793
630.004000 0.063843
630.233300 0.098798
630.462600 0.066971
630.692000 0.080056
630.921300 0.074671
631.150700 0.084601
631.380100 0.066663
631.609400 0.053498
631.838800 0.074240
632.068200 0.060201
632.297600 0.081299
632.527100 0.078328
632.756500 0.081992
632.985900 0.074164
633.215400 0.087383
633.444800 0.076390
633.674300 0.061154
633.903800 0.080183
634.133300 0.053500
634.362800 0.088792
634.592300 0.059640
634.821800 0.102612
635.051400 0.105281
635.280900 0.083846
635.510500 0.047463
635.740000 0.073563
635.969600 0.105647
636.199200 0.050010
636.428800 0.065980
636.658400 0.073959
636.888000 0.055335
637.117700 0.055810
637.347300 0.038324
637.577000 0.083914
637.806600 0.068413
638.036300 0.072227
638.266000 0.073104
638.495700 0.083720
638.725400 0.083484
638.955100 0.063305
639.184800 0.051518
639.414500 0.077845
639.644300 0.077258
639.874000 0.064625
640.103800 0.072066
640.333600 0.054185
640.563300 0.045496
640.793100 0.040067
641.022900 0.074324
641.252800 0.058090
641.482600 0.093038
641.712400 0.080326
641.942300 0.058337
642.172100 0.089236
642.402000 0.085458
642.631900 0.052887
642.861700 0.042942
643.091600 0.101519
643.321600 0.036641
643.551500 0.004730
643.781400 0.036686
644.011300 0.081403
644.241300 0.059693
644.471200 0.052562
644.701200 0.048748
644.931200 0.065178
645.161200 0.062802
645.391200 0.084045
645.621200 0.059962
645.851200 0.048913
646.081200 0.059963
646.311300 0.077993
646.541300 0.079719
646.771400 0.027828
647.001500 0.052808
647.231600 0.020071
647.461600 0.100581
647.691800 0.079814
647.921900 0.029268
648.152000 0.068309
648.382100 0.079695
648.612300 0.093570
648.842400 0.050037
649.072600 0.059493
649.302800 0.061393
649.532900 0.063283
649.763100 0.070851
649.993300 0.095013
650.223600 0.066477
650.453800 0.038651
650.684000 0.074469
650.914300 0.063191
651.144500 0.098841
651.374800 0.098880
651.605100 0.070662
651.835400 0.066907
652.065700 0.055453
652.296000 0.058040
652.526300 0.034210
652.756600 0.031877
652.987000 0.057761
653.217300 0.049829
653.447700 0.058991
653.678000 0.057756
653.908400 0.062421
654.138800 0.086929
654.369200 0.103044
654.599600 0.089848
654.830000 0.078990
655.060500 0.134850
655.290900 0.153736
655.521300 0.144897
655.751800 0.102652
655.982300 -0.002891
656.212800 -0.000972
656.443300 -0.001453
656.673800 -0.001228
656.904300 0.036861
657.134800 0.087726
657.365300 0.093444
657.595900 0.091030
657.826400 0.091824
658.057000 0.092395
658.287500 0.102882
658.518100 0.093962
658.748700 0.092111
658.979300 0.096019
659.209900 0.125729
659.440600 0.153897
659.671200 0.165432
659.901800 0.142197
660.132500 0.115295
660.363200 0.127832
660.593800 0.086263
660.824500 0.069211
661.055200 0.105820
661.285900 0.088369
661.516600 0.070419
661.747400 0.070738
661.978100 0.038767
662.208800 0.126049
662.439600 0.078307
662.670400 0.061934
662.901100 0.094793
663.131900 0.067256
663.362700 0.041731
663.593500 0.086953
663.824300 0.058884
664.055200 0.046148
664.286000 0.055960
664.516800 0.060064
664.747700 0.044025
664.978600 0.064577
665.209400 0.066267
665.440300 0.067649
665.671200 0.079507
665.902100 0.071757
666.133000 0.046449
666.364000 0.038973
666.594900 0.037231
666.825900 0.071163
667.056800 0.044101
667.287800 0.106904
667.518800 0.120587
667.749700 0.027644
667.980700 0.083737
668.211700 0.051935
668.442800 0.054299
668.673800 0.075737
668.904800 0.055256
669.135900 0.079841
669.366900 0.061510
669.598000 0.028195
669.829100 0.042100
670.060200 0.068202
670.291300 0.086093
670.522400 0.030260
670.753500 0.081906
670.984600 0.041840
671.215700 0.106964
671.446900 0.088824
671.678100 0.088186
671.909200 0.098235
672.140400 0.097260
672.371600 0.044240
672.602800 0.051622
672.834000 0.077315
673.065200 0.057146
673.296400 0.046799
673.527700 0.056050
673.758900 0.041968
673.990200 0.079996
674.221400 0.101777
674.452700 0.046528
674.684000 0.036963
674.915300 0.059504
675.146600 0.055356
675.377900 0.011852
675.609300 0.073181
675.840600 0.079079
676.071900 0.075016
676.303300 0.074985
676.534700 0.032165
676.766100 0.074023
676.997400 0.088960
677.228800 0.060914
677.460200 0.096217
677.691700 0.030114
677.923100 0.075178
678.154500 0.042394
678.386000 0.051120
678.617400 0.050049
678.848900 0.050717
679.080400 0.054566
679.311900 0.087586
679.543400 0.040254
679.774900 0.051589
680.006400 0.122678
680.237900 0.062312
680.469400 0.090245
680.701000 0.075165
680.932500 0.038238
681.164100 0.062367
681.395700 0.067126
681.627300 0.079392
681.858900 0.069273
682.090500 0.081565
682.322100 0.061996
682.553700 0.052645
682.785400 0.036390
683.017000 0.062403
683.248700 0.070106
683.480300 0.059450
683.712000 0.050398
683.943700 0.044562
684.175400 0.107487
684.407100 0.071550
684.638800 0.065591
684.870500 0.072853
685.102300 0.070550
685.334000 0.077064
685.565800 0.084386
685.797500 0.082581
686.029300 0.065458
686.261100 0.083403
686.492900 0.077477
686.724700 0.079261
686.956500 0.073504
687.188300 0.071813
687.420200 0.055420
687.652000 0.047265
687.883800 0.076155
688.115700 0.078740
688.347600 0.065721
688.579500 0.096902
688.811400 0.062617
689.043300 0.091861
689.275200 0.065884
689.507100 0.051605
689.739000 0.066065
689.971000 0.057746
690.202900 0.041512
690.434900 0.080015
690.666900 0.060295
690.898800 0.060377
691.130800 0.088976
691.362800 0.046262
691.594800 0.076267
691.826900 0.078254
692.058900 0.074337
692.290900 0.077230
692.523000 0.106165
692.755000 0.094979
692.987100 0.060428
693.219200 0.077496
693.451300 0.087000
693.683400 0.082611
693.915500 0.064860
694.147600 0.064662
694.379700 0.077694
694.611900 0.087989
694.844000 0.073659
695.076200 0.035609
695.308300 0.101462
695.540500 0.069358
695.772700 0.038334
696.004900 0.051351
696.237100 0.045535
696.469300 0.054824
696.701600 0.090040
696.933800 0.077754
697.166000 0.083703
697.398300 0.099351
697.630600 0.098867
697.862800 0.073639
698.095100 0.072752
698.327400 0.081728
698.559700 0.046408
698.792000 0.050236
699.024300 0.070242
699.256700 0.067021
699.489000 0.063398
699.721400 0.080880
699.953700 0.056493
700.186100 0.039927
700.418500 0.057978
700.650900 0.066217
700.883300 0.087070
701.115700 0.101331
701.348100 0.035825
701.580600 0.073426
701.813000 0.097881
702.045400 0.076343
702.277900 0.050721
702.510400 0.075870
702.742900 0.036061
702.975300 0.062402
703.207800 0.080498
703.440300 0.062914
703.672900 0.095628
703.905400 0.039077
704.137900 0.093305
704.370500 0.059589
704.603000 0.065654
704.835600 0.091446
705.068200 0.023789
705.300800 0.096081
705.533400 0.085568
705.766000 0.067819
705.998600 0.101312
706.231200 0.054489
706.463800 0.097767
706.696500 0.069887
706.929100 0.049461
707.161800 0.035305
707.394500 0.056877
707.627200 0.075388
707.859900 0.106156
708.092600 0.066013
708.325300 0.060088
708.558000 0.051302
708.790700 0.079346
709.023500 0.078308
709.256200 0.069844
709.489000 0.053158
709.721700 0.063047
709.954500 0.054340
710.187300 0.031200
710.420100 0.068267
710.652900 0.047062
710.885700 0.033863
711.118600 0.068850
711.351400 0.024688
711.584200 0.044134
711.817100 0.077549
712.050000 0.079488
712.282800 0.049596
712.515700 0.063165
712.748600 0.076541
712.981500 0.087512
713.214400 0.086192
713.447400 0.048128
713.680300 0.040372
713.913200 0.059299
714.146200 0.068312
714.379100 0.039537
714.612100 0.067143
714.845100 0.058233
715.078100 0.080664
715.311100 0.029891
715.544100 0.075172
715.777100 0.057212
716.010200 0.036290
716.243200 0.056150
716.476200 0.049944
716.709300 0.065013
716.942400 0.088191
717.175400 0.068251
717.408500 0.060137
717.641600 0.060121
717.874700 0.042034
718.107800 0.085171
718.341000 0.067707
718.574100 0.083136
718.807200 0.093264
719.040400 0.077846
719.273600 0.051020
719.506700 0.093311
719.739900 0.067932
719.973100 0.054632
720.206300 0.086486
720.439500 0.091808
720.672700 0.054533
720.906000 0.095950
721.139200 0.068333
721.372500 0.037071
721.605700 0.096215
721.839000 0.110323
722.072300 0.065065
722.305500 0.064753
722.538800 0.092548
722.772100 0.045022
723.005500 0.058105
723.238800 0.066648
723.472100 0.055941
723.705500 0.080099
723.938800 0.070783
724.172200 0.072577
724.405600 0.044098
724.638900 0.110677
724.872300 0.050479
725.105700 0.068845
725.339100 0.059947
725.572600 0.054920
725.806000 0.054340
726.039400 0.097462
726.272900 0.068287
726.506300 0.057248
726.739800 0.073040
726.973300 0.045649
727.206800 0.090733
727.440300 0.086732
727.673800 0.065450
727.907300 0.116435
728.140800 0.081253
728.374300 0.077100
728.607900 0.069951
728.841400 0.038196
729.075000 0.065437
729.308600 0.052490
729.542100 0.073871
729.775700 0.058608
730.009300 0.052523
730.242900 0.061131
730.476600 0.095595
730.710200 0.073205
730.943800 0.094228
731.177500 0.064128
731.411100 0.057762
731.644800 0.080192
731.878500 0.060062
732.112200 0.087473
732.345800 0.072666
732.579500 0.108473
732.813300 0.093613
733.047000 0.085693
733.280700 0.094912
733.514500 0.060906
733.748200 0.090187
733.982000 0.060810
734.215700 0.071011
734.449500 0.081992
734.683300 0.073849
734.917100 0.065950
735.150900 0.056894
735.384700 0.069542
735.618500 0.066698
735.852400 0.058380
736.086200 0.081015
736.320100 0.068394
736.553900 0.090236
736.787800 0.071009
737.021700 0.057394
737.255600 0.060855
737.489500 0.058308
737.723400 0.064226
737.957300 0.063461
738.191200 0.072151
738.425200 0.069778
738.659100 0.090534
738.893100 0.046154
739.127100 0.081629
739.361000 0.083161
739.595000 0.084451
739.829000 0.068887
740.063000 0.052588
740.297000 0.088584
740.531000 0.044974
740.765100 0.043507
740.999100 0.068133
741.233200 0.075019
741.467200 0.049836
741.701300 0.033009
741.935400 0.076419
742.169500 0.046235
742.403600 0.052329
742.637700 0.067068
742.871800 0.039996
743.105900 0.071923
743.340000 0.051091
743.574200 0.052933
743.808300 0.071235
744.042500 0.047466
744.276700 0.053165
744.510800 0.032902
744.745000 0.050523
744.979200 0.101186
745.213400 0.067875
745.447700 0.077480
745.681900 0.049345
745.916100 0.052587
746.150400 0.051609
746.384600 0.069817
746.618900 0.055371
746.853200 0.087189
747.087400 0.051625
747.321700 0.060367
747.556000 0.046189
747.790300 0.050360
748.024700 0.029082
748.259000 0.055957
748.493300 0.053571
748.727700 0.069279
748.962000 0.075286
749.196400 0.053557
749.430800 0.069195
749.665200 0.044618
749.899500 0.076591
750.133900 0.054987
750.368400 0.085874
750.602800 0.044881
750.837200 0.058561
751.071700 0.053126
751.306100 0.076849
751.540600 0.081585
751.775000 0.048441
752.009500 0.078022
752.244000 0.048794
752.478500 0.055039
752.713000 0.098097
752.947500 0.065861
753.182000 0.091836
753.416600 0.054975
753.651100 0.094649
753.885600 0.056183
754.120200 0.082046
754.354800 0.063846
754.589400 0.058637
754.823900 0.059357
755.058500 0.076421
755.293100 0.069849
755.527800 0.084330
755.762400 0.097401
755.997000 0.077788
756.231700 0.067854
756.466300 0.081248
756.701000 0.079718
756.935600 0.078835
757.170300 0.057822
757.405000 0.084250
757.639700 0.089648
757.874400 0.088481
758.109100 0.090860
758.343800 0.072116
758.578600 0.076387
758.813300 0.065452
759.048100 0.083163
759.282800 0.072710
759.517600 0.085843
759.752400 0.091177
759.987200 0.056163
760.222000 0.099525
760.456800 0.082197
760.691600 0.092090
760.926400 0.078782
761.161300 0.073433
761.396100 0.073280
761.631000 0.069311
761.865800 0.112830
762.100700 0.080907
762.335600 0.089341
762.570500 0.079583
762.805400 0.068287
763.040300 0.054924
763.275200 0.085660
763.510100 0.080753
763.745000 0.078552
763.980000 0.108018
764.214900 0.051882
764.449900 0.078415
764.684900 0.068943
764.919800 0.058715
765.154800 0.056712
765.389800 0.078940
765.624800 0.092247
765.859900 0.069932
766.094900 0.066384
766.329900 0.056127
766.565000 0.069666
766.800000 0.051671
767.035100 0.063193
767.270100 0.062401
767.505200 0.054437
767.740300 0.061466
767.975400 0.047733
768.210500 0.087625
768.445600 0.052421
768.680800 0.071507
768.915900 0.097764
769.151000 0.065090
769.386200 0.080335
769.621400 0.041922
769.856500 0.085750
770.091700 0.077145
770.326900 0.080292
770.562100 0.075104
770.797300 0.066778
771.032500 0.058608
771.267700 0.073179
771.503000 0.084329
771.738200 0.097470
771.973500 0.042533
772.208700 0.044830
772.444000 0.066545
772.679300 0.048222
772.914600 0.076889
773.149900 0.065314
773.385200 0.065966
773.620500 0.064830
773.855800 0.066373
774.091100 0.033275
774.326500 0.053897
774.561800 0.061339
774.797200 0.077315
775.032600 0.072032
775.267900 0.060545
775.503300 0.048697
775.738700 0.036569
775.974100 0.082883
776.209500 0.072296
776.445000 0.063026
776.680400 0.117262
776.915800 0.050175
777.151300 0.046220
777.386800 0.048300
777.622200 0.060573
777.857700 0.071591
778.093200 0.106766
778.328700 0.075818
778.564200 0.055604
778.799700 0.072399
779.035200 0.077025
779.270700 0.067090
779.506300 0.062197
779.741800 0.054719
779.977400 0.075560
780.213000 0.055349
780.448500 0.076894
780.684100 0.067193
780.919700 0.070431
781.155300 0.074266
781.390900 0.070562
781.626500 0.053951
781.862200 0.073631
782.097800 0.076748
782.333500 0.054933
782.569100 0.076776
782.804800 0.053913
783.040500 0.076147
783.276100 0.045262
783.511800 0.065345
783.747500 0.060673
783.983200 0.045354
784.219000 0.077358
784.454700 0.097862
784.690400 0.085171
784.926200 0.075141
785.161900 0.077654
785.397700 0.056634
785.633500 0.035395
785.869200 0.064681
786.105000 0.079811
786.340800 0.077275
786.576600 0.029301
786.812400 0.059402
787.048300 0.053026
787.284100 0.070688
787.519900 0.057665
787.755800 0.054424
787.991700 0.085367
788.227500 0.042134
788.463400 0.064166
788.699300 0.047265
788.935200 0.076557
789.171100 0.064276
789.407000 0.094771
789.642900 0.065207
789.878900 0.092143
790.114800 0.043302
790.350700 0.069842
790.586700 0.086795
790.822700 0.081532
791.058600 0.039633
791.294600 0.085760
791.530600 0.049491
791.766600 0.059236
792.002600 0.084001
792.238700 0.115511
792.474700 0.063421
792.710700 0.097814
792.946800 0.033888
793.182800 0.060902
793.418900 0.058110
793.655000 0.075980
793.891000 0.077602
794.127100 0.093248
794.363200 0.109720
794.599300 0.060193
794.835500 0.081146
795.071600 0.106679
795.307700 0.080816
795.543900 0.092695
795.780000 0.060073
796.016200 0.092628
796.252300 0.091981
796.488500 0.060389
796.724700 0.077383
796.960900 0.068507
797.197100 0.047371
797.433300 0.000354
797.669500 0.079061
797.905800 0.068381
798.142000 0.076141
798.378300 0.035827
798.614500 0.034018
798.850800 0.055159
799.087100 0.079932
799.323300 0.091655
799.559600 0.045098
799.795900 0.100013
800.032200 0.084589
800.268600 0.041865
800.504900 0.051543
800.741200 0.067520
800.977600 0.050257
801.213900 0.059849
801.450300 0.061419
801.686700 0.100436
801.923000 0.075609
802.159400 0.057954
802.395800 0.034443
802.632200 0.109545
802.868600 0.041979
803.105100 0.065833
803.341500 0.012836
803.577900 0.070538
803.814400 0.063534
804.050800 0.086510
804.287300 0.047172
804.523800 0.103430
804.760300 0.083288
804.996800 0.029250
805.233300 0.056177
805.469800 0.114524
805.706300 0.056716
805.942800 0.042951
806.179400 0.029482
806.415900 0.096829
806.652500 0.073797
806.889000 0.122930
807.125600 0.057606
807.362200 0.024544
807.598800 0.049763
807.835400 0.065463
808.072000 0.030524
808.308600 0.063062
808.545200 0.119078
808.781800 0.050775
809.018500 0.101796
809.255100 0.062062
809.491800 0.079557
809.728400 0.043505
809.965100 0.100910
810.201800 0.083265
810.438500 0.010781
810.675200 0.040539
810.911900 0.071672
811.148600 0.076745
811.385300 0.089814
811.622100 0.024489
811.858800 0.026655
812.095600 0.037475
812.332300 0.085214
812.569100 0.099072
812.805900 0.038963
813.042700 0.053193
813.279500 0.045852
813.516300 0.004356
813.753100 0.068795
813.989900 0.053801
814.226700 0.056475
814.463600 0.085328
814.700400 0.023328
814.937300 0.011020
815.174200 0.050144
815.411000 0.027660
815.647900 0.014398
815.884800 0.007518
816.121700 0.099588
816.358600 0.051971
816.595500 0.034185
816.832400 -0.016371
817.069400 0.054328
817.306300 0.063802
817.543300 0.020493
817.780200 0.017522
818.017200 0.102777
818.254200 0.049213
818.491200 0.077858
818.728200 0.115998
818.965200 0.006860
819.202200 0.091922
819.439200 0.029608
819.676200 0.015156
819.913300 0.040959
820.150300 0.076563
820.387400 0.146926
820.624400 0.120181
820.861500 0.059553
821.098600 0.115566
821.335700 0.087693
821.572700 0.051634
821.809900 0.103241
822.047000 0.084841
822.284100 0.031810
822.521200 0.025901
822.758400 0.095916
822.995500 0.062623
823.232700 0.037342
823.469800 0.114127
823.707000 0.038251
823.944200 0.106554
824.181400 0.015940
824.418600 0.036088
824.655800 0.032403
824.893000 0.075211
825.130200 0.049108
825.367500 0.058938
825.604700 0.076567
825.841900 0.002284
826.079200 0.083379
826.316500 0.073758
826.553700 0.026115
826.791000 0.095427
827.028300 0.069101
827.265600 0.020681
827.502900 0.070941
827.740200 0.087893
827.977600 0.028532
828.214900 0.095820
828.452200 0.063043
828.689600 0.055015
828.927000 0.047156
829.164300 -0.020000
829.401700 0.037837
829.639100 0.015803
829.876500 -0.018965
830.113900 0.079407
830.351300 0.091207
830.588700 0.026225
830.826100 0.113213
831.063600 -0.024383
831.301000 0.100877
831.538500 0.045051
831.775900 0.023399
832.013400 0.054372
832.250900 0.016202
832.488400 0.184179
832.725900 0.069307
832.963400 0.077654
833.200900 0.086815
833.438400 0.042715
833.675900 0.051234
833.913500 0.103579
834.151000 0.055811
834.388600 0.111157
834.626100 0.053553
834.863700 0.121366
835.101300 0.026234
835.338900 0.027355
835.576500 0.058681
835.814100 0.052180
836.051700 0.016730
836.289300 0.137129
836.526900 -0.010586
836.764600 0.010561
837.002200 0.151595
837.239900 0.013731
837.477500 0.096087
837.715200 -0.022388
837.952900 0.037179
838.190600 0.101142
838.428300 0.024184
838.666000 0.065496
838.903700 0.096926
839.141400 0.149955
839.379100 0.014247
839.616900 0.044340
839.854600 0.115227
840.092400 0.136585
840.330200 -0.019211
840.567900 0.025342
840.805700 0.100896
841.043500 0.135650
841.281300 0.061229
841.519100 0.037219
841.756900 -0.018085
841.994700 -0.038771
842.232600 0.100940
842.470400 0.009547
842.708200 -0.092903
842.946100 -0.104053
843.184000 -0.076311
843.421800 0.054441
843.659700 -0.057608
843.897600 0.005421
844.135500 0.120292
844.373400 0.058037
844.611300 0.083716
844.849200 0.060375
845.087200 0.004449
845.325100 0.075138
845.563100 0.051714
845.801000 0.084696
846.039000 0.144966
846.277000 -0.098269
846.514900 0.054875
846.752900 -0.078041
846.990900 -0.081591
847.228900 -0.077345
847.466900 0.221642
847.705000 0.150683
847.943000 -0.068197
848.181000 0.050206
848.419100 -0.008331
848.657100 0.081064
848.895200 -0.000177
849.133300 0.083503
849.371300 -0.009970
849.609400 -0.077095
849.847500 0.039662
850.085600 0.026654
850.323700 0.137653
850.561900 0.000760
850.800000 0.000639
851.038100 0.080492
851.276300 0.030870
851.514400 -0.083832
851.752600 0.051109
851.990800 -0.118010
852.228900 0.049041
852.467100 0.006092
852.705300 0.045876
852.943500 0.053464
853.181700 0.055097
853.420000 0.042140
853.658200 0.007336
853.896400 0.120626
854.134700 0.045305
854.372900 0.060981
854.611200 0.100682
854.849500 0.068257
855.087700 0.046106
855.326000 0.130328
855.564300 0.031632
855.802600 0.077505
856.040900 0.062956
856.279200 0.040624
856.517600 0.093779
856.755900 -0.021952
856.994200 0.021735
857.232600 0.061665
857.471000 0.022281
857.709300 0.058607
857.947700 0.070276
858.186100 0.050814
858.424500 0.055009
858.662900 0.130166
858.901300 0.021394
859.139700 0.030294
859.378100 0.009137
859.616600 0.024847
859.855000 0.029174
860.093500 -0.028673
860.331900 0.016170
860.570400 0.014774
860.808900 -0.019453
861.047300 -0.017648
861.285800 0.000603
861.524300 0.023284
861.762800 0.121033
862.001300 0.011431
862.239900 0.094849
862.478400 0.058620
862.716900 0.024078
862.955500 0.142819
863.194000 -0.040473
863.432600 0.112578
863.671200 0.073994
863.909800 0.047437
864.148300 -0.051191
864.386900 -0.062335
864.625500 0.063102
864.864200 0.078058
865.102800 0.106253
865.341400 0.050804
865.580000 -0.085296
865.818700 0.068539
866.057300 0.149493
866.296000 -0.002815
866.534700 0.106597
866.773300 0.071803
867.012000 -0.036692
867.250700 0.097731
867.489400 -0.024724
867.728100 0.063267
867.966900 0.100940
868.205600 -0.047589
868.444300 0.088631
868.683100 0.005867
868.921800 -0.078329
869.160600 0.102717
869.399300 -0.075542
869.638100 0.088342
869.876900 0.155068
870.115700 -0.017065
870.354500 0.127158
870.593300 0.018948
870.832100 0.047349
871.070900 0.035482
871.309700 0.051714
871.548600 0.139277
871.787400 -0.010097
872.026300 0.007889
872.265100 0.056431
872.504000 0.212495
872.742900 -0.061678
872.981800 -0.007642
873.220700 0.045075
873.459600 0.116340
873.698500 0.011590
873.937400 0.112321
874.176300 -0.035682
874.415300 0.052520
874.654200 -0.014025
874.893200 0.147386
875.132100 0.027414
875.371100 0.076648
875.610100 0.155256
875.849100 0.144449
876.088000 -0.037936
876.327000 0.188880
876.566100 0.188463
876.805100 0.046644
877.044100 0.101199
877.283100 -0.121075
877.522200 -0.092656
877.761200 -0.053338
878.000300 0.076887
878.239300 0.146853
878.478400 0.047336
878.717500 0.086397
878.956600 0.063308
879.195700 0.152504
879.434800 -0.069619
879.673900 0.034600
879.913000 0.092654
880.152100 0.034979
880.391300 0.075880
880.630400 0.103260
880.869600 0.049845
881.108700 0.057351
881.347900 0.108522
881.587100 0.063753
881.826200 0.130419
882.065400 0.010394
882.304600 0.034278
882.543800 0.128032
882.783100 0.013894
883.022300 0.020728
883.261500 -0.000144
883.500700 0.000614
883.740000 -0.078382
883.979200 0.150305
884.218500 0.042552
884.457800 0.029527
884.697100 0.019545
884.936300 -0.016442
885.175600 0.118564
885.414900 0.055802
885.654200 0.071216
885.893600 -0.054664
886.132900 -0.003810
886.372200 -0.047560
886.611600 0.035394
886.850900 0.045067
887.090300 0.004256
887.329600 0.004215
887.569000 0.004870
887.808400 0.058232
888.047800 0.039251
888.287200 -0.008524
888.526600 -0.068038
888.766000 -0.073107
889.005400 0.129232
889.244800 0.111806
889.484300 0.017384
889.723700 -0.009084
889.963200 0.249035
890.202600 -0.005532
890.442100 -0.120464
890.681600 0.208178
890.921100 -0.114653
891.160600 -0.027423
891.400100 0.165641
891.639600 0.152349
891.879100 0.068331
892.118600 0.067362
892.358100 -0.075617
892.597700 -0.022134
892.837200 0.136503
893.076800 0.097831
893.316300 -0.000163
893.555900 0.092204
893.795500 0.059839
894.035100 0.055100
894.274700 0.053846
894.514300 -0.074867
894.753900 0.065210
894.993500 0.051100
895.233100 -0.110030
895.472700 0.022654
895.712400 0.129710
895.952000 0.018509
896.191700 0.052428
896.431400 0.110740
896.671000 0.034463
896.910700 0.014256
897.150400 0.002561
897.390100 -0.001173
897.629800 0.124587
897.869500 -0.001267
898.109200 -0.066691
898.348900 0.009264
898.588700 -0.056003
898.828400 0.141080
899.068200 -0.072288
899.307900 0.157321
899.547700 0.086373
899.787500 0.015107
900.027200 -0.135623
900.267000 -0.004572
900.506800 0.015467
900.746600 0.048972
900.986400 -0.085740
901.226300 -0.050850
901.466100 0.007568
901.705900 0.217333
901.945800 -0.089852
902.185600 -0.021809
902.425500 -0.001508
902.665400 -0.114187
902.905200 -0.014019
903.145100 0.019975
903.385000 -0.157932
903.624900 -0.001194
903.864800 0.221816
904.104700 0.029858
904.344600 0.025884
904.584600 0.039760
904.824500 0.164841
905.064400 -0.022678
905.304400 -0.070765
905.544400 0.010116
905.784300 0.218647
906.024300 -0.006748
906.264300 0.000733
906.504300 0.122232
906.744300 0.127683
906.984300 -0.020650
907.224300 0.228663
907.464300 0.295713
907.704300 -0.125434
907.944400 -0.094756
908.184400 -0.044215
908.424500 -0.036873
908.664500 -0.066821
908.904600 0.009453
909.144700 0.029001
909.384700 -0.012032
909.624800 -0.097990
909.864900 0.003075
910.105000 0.046966
910.345200 -0.024167
910.585300 -0.043507
910.825400 0.105468
911.065500 0.301586
911.305700 0.115180
911.545800 -0.072162
911.786000 0.123225
912.026200 0.068682
912.266300 0.015996
912.506500 0.082654
912.746700 0.000687
912.986900 -0.151393
913.227100 -0.031305
913.467300 0.096234
913.707500 -0.115333
913.947800 0.022979
914.188000 0.053142
914.428300 -0.038269
914.668500 -0.019982
914.908800 -0.074756
915.149000 0.075542
915.389300 0.062379
915.629600 0.137126
915.869900 0.181304
916.110200 -0.109479
916.350500 0.043027
916.590800 -0.116432
916.831100 0.470983
917.071400 0.102206
917.311800 -0.049012
917.552100 -0.035862
917.792500 -0.132915
918.032800 -0.057673
918.273200 0.033271
918.513600 0.320439
918.753900 0.051225
918.994300 0.172478
919.234700 0.109896
919.475100 0.080375
919.715500 -0.109319
919.956000 0.142383
920.196400 -0.109570
920.436800 -0.243846
920.677300 0.054624
920.917700 0.099079
921.158200 0.110440
921.398600 -0.056981
921.639100 0.012135
921.879600 -0.110239
922.120100 -0.047054
922.360600 -0.000328
922.601100 0.160262
922.841600 0.006756
923.082100 0.088255
923.322600 -0.085932
923.563100 0.038720
923.803700 0.157818
924.044200 0.466071
924.284800 -0.087774
924.525400 0.173393
924.765900 0.133990
925.006500 0.024725
925.247100 -0.058199
925.487700 0.014230
925.728300 0.020171
925.968900 0.048018
926.209500 -0.008658
926.450100 0.059494
926.690800 0.269737
926.931400 -0.128346
927.172000 -0.115255
927.412700 0.147353
927.653300 -0.043262
927.894000 0.141839
928.134700 0.040236
928.375400 -0.070731
928.616100 0.245168
928.856800 0.066425
929.097500 0.118512
929.338200 -0.041059
929.578900 0.189202
929.819600 0.293147
930.060400 -0.168347
930.301100 -0.046341
930.541900 -0.073464
930.782600 -0.188267
931.023400 -0.072449
931.264200 -0.003433
931.504900 0.307146
931.745700 0.002757
931.986500 0.161447
932.227300 0.028051
932.468100 0.235971
932.708900 -0.109144
932.949800 0.073021
933.190600 -0.110856
933.431400 -0.156682
933.672300 -0.315736
933.913100 0.714776
934.154000 0.004055
934.394900 0.079599
934.635800 -0.035250
934.876600 -0.115626
935.117500 0.320121
935.358400 0.204120
935.599300 0.046466
935.840300 -0.156452
936.081200 0.131455
936.322100 -0.227017
936.563000 0.140401
936.804000 0.039165
937.044900 -0.244347
937.285900 0.207232
937.526900 -0.016616
937.767800 0.342318
938.008800 -0.058046
938.249800 0.490226
938.490800 0.132666
938.731800 -0.076721
938.972800 0.115431
939.213800 -0.017907
939.454900 0.068163
939.695900 0.137898
939.936900 -0.008466
940.178000 -0.111684
940.419000 -0.214625
940.660100 0.210530
940.901200 1.459631
941.142200 -0.264875
941.383300 0.029319
941.624400 0.219815
941.865500 0.143701
942.106600 0.073993
942.347700 -0.262828
942.588900 -0.248891
942.830000 -0.209515
943.071100 -0.029366
943.312300 0.376734
943.553400 -0.059548
943.794600 -0.054371
944.035700 0.387008
944.276900 -0.020940
944.518100 -0.028888
944.759300 0.278366
945.000500 -0.581379
945.241700 0.459494
945.482900 1.129755
945.724100 0.453786
945.965300 -0.320102
946.206600 -0.048605
946.447800 0.062032
946.689100 -0.079720
946.930300 -0.450019
947.171600 0.262097
947.412800 0.030612
947.654100 -0.016489
947.895400 0.106108
948.136700 -0.198088
948.378000 -0.299669
948.619300 0.091488
948.860600 0.332816
949.101900 0.001570
949.343300 -0.088087
949.584600 0.518587
949.825900 0.028188
950.067300 0.030229
950.308600 -0.290341
950.550000 -0.035606
950.791400 -0.580362
951.032700 -0.431536
951.274100 -0.214693
951.515500 0.227145
951.756900 0.077748
951.998300 0.651733
952.239800 0.235370
952.481200 -0.039970
952.722600 -0.243431
952.964000 0.405069
953.205500 -0.072995
953.446900 -0.055113
953.688400 -0.032931
953.929900 0.397714
954.171300 -1.369970
954.412800 -0.030213
954.654300 0.092165
954.895800 -0.277643
955.137300 -0.593023
955.378800 -0.278648
955.620300 -0.209665
955.861800 0.312952
956.103400 -0.240720
956.344900 -0.120946
956.586500 2.014591
956.828000 -0.019602
957.069600 0.030442
957.311100 -0.445489
957.552700 0.176091
957.794300 -0.241648
958.035900 -0.313709
958.277500 -0.226356
958.519100 0.638668
958.760700 -0.149293
959.002300 -0.558155
959.243900 -0.185002
959.485600 -0.194720
959.727200 0.096141
959.968800 0.153632
960.210500 0.246616
960.452200 -0.151378
960.693800 -0.277374
960.935500 -3.276232
961.177200 -0.151666
961.418900 2.653213
961.660600 3.042576
961.902300 0.068450
962.144000 -0.670388
962.385700 0.175741
962.627400 -0.275304
962.869200 -0.233945
963.110900 -0.168712
963.352700 0.003149
963.594400 0.170442
963.836200 -0.261697
964.077900 0.131574
964.319700 -0.032872
964.561500 -0.122628
964.803300 0.682883
965.045100 -0.160230
965.286900 -0.129996
965.528700 -0.310350
965.770500 -0.237096
966.012300 -0.397423
966.254200 -0.595165
966.496000 -0.420518
966.737900 0.196526
966.979700 0.572293
967.221600 -0.235143
967.463400 -0.215685
967.705300 0.514799
967.947200 -0.300430
968.189100 -0.595646
968.431000 0.106715
968.672900 -0.223037
968.914800 -0.183589
969.156700 -0.078399
969.398700 -0.700620
969.640600 -1.020719
969.882500 0.087304
970.124500 -0.416924
970.366400 0.299424
970.608400 -0.192559
970.850400 -0.719635
971.092300 -0.282182
971.334300 0.503200
971.576300 -0.446141
971.818300 3.226342
972.060300 0.099642
972.302300 0.425048
972.544300 -0.389102
972.786400 0.147883
973.028400 3.206826
973.270400 0.046658
973.512500 0.538358
973.754500 0.319285
973.996600 -0.041872
974.238700 0.020741
974.480700 -0.009029
974.722800 -0.099943
974.964900 -0.239251
975.207000 0.109182
975.449100 0.457643
975.691200 -0.308758
975.933300 -0.300117
976.175500 -3.153815
976.417600 3.051153
976.659700 -0.264740
976.901900 0.384113
977.144000 -0.053438
977.386200 -0.382030
977.628300 1.148641
977.870500 0.315775
978.112700 -0.336574
978.354900 -0.509808
978.597100 -0.280345
978.839300 0.022134
979.081500 1.043396
979.323700 -3.036629
979.565900 0.207335
979.808200 3.265290
980.050400 0.656968
980.292600 0.228283
980.534900 -0.309175
980.777100 2.971276
981.019400 0.004628
981.261700 0.010512
981.504000 0.195074
981.746200 -1.253892
981.988500 -0.200525
982.230800 -0.321604
982.473100 0.093578
982.715500 -0.043253
982.957800 -0.153936
983.200100 -0.206114
983.442400 -0.585792
983.684800 -0.292326
983.927100 -0.276009
984.169500 0.913544
984.411800 -0.189120
984.654200 -0.566118
984.896600 -0.212342
985.139000 -1.806180
985.381400 0.152529
985.623800 0.285536
985.866200 -0.077864
986.108600 -3.208173
986.351000 -0.296950
986.593400 -0.042526
986.835800 0.394514
987.078300 2.682145
987.320700 -0.320746
987.563200 2.700704
987.805600 -0.982967
988.048100 -0.266853
988.290600 -0.495814
988.533100 -2.850033
988.775600 -0.125733
989.018000 0.162001
989.260500 -0.185017
989.503100 -2.921686
989.745600 -1.277721
989.988100 -3.190612
990.230600 0.069847
990.473200 -0.224661
990.715700 1.053559
990.958200 -0.351315
991.200800 -0.710987
991.443400 -2.305351
991.685900 -0.598660
991.928500 0.000000
992.171100 2.158362
992.413700 3.125806
992.656300 0.568381
992.898900 0.071103
993.141500 0.077156
993.384100 -0.186570
993.626700 0.836093
993.869400 0.556303
994.112000 0.010995
994.354700 0.341770
994.597300 -0.038733
994.840000 0.000000
995.082600 -0.716446
995.325300 -0.884302
995.568000 -0.544957
995.810700 2.127105
996.053400 0.188680
996.296100 -0.285905
996.538800 -0.247511
996.781500 0.822836
997.024200 -1.147235
997.267000 -0.404762
997.509700 0.299619
997.752400 -0.365539
997.995200 -0.162631
998.237900 2.701568
998.480700 -0.440398
998.723500 0.000000
998.966200 -0.096910
999.209000 -3.098990
999.451800 -0.401284
999.694600 -0.115107
999.937400 -0.413525
1000.180200 -0.454258
1000.423000 0.584207
1000.665900 0.020894
1000.908700 2.396199
1001.151500 -0.215458
1001.394400 0.396770
1001.637200 -0.264952
1001.880100 -2.266780
1002.123000 -0.421157
1002.365800 0.294532
1002.608700 -0.605381
1002.851600 -0.199991
1003.094500 -0.127423
1003.337400 0.013364
1003.580300 -3.285782
1003.823200 0.210853
1004.066100 -0.207854
1004.309100 2.719331
1004.552000 -0.010516
1004.794900 0.115984
1005.037900 -0.142009
1005.280800 -0.314065
1005.523800 0.146926
1005.766700 1.051510
1006.009700 -0.029366
1006.252700 0.000000
1006.495700 -0.223716
1006.738700 -3.224792
1006.981700 -0.077697
1007.224700 -0.268474
1007.467700 -0.992701
1007.710700 -0.473559
1007.953800 0.135828
1008.196800 2.736397
1008.439800 -0.012826
1008.682900 -0.384675
1008.925900 0.332681
1009.169000 0.060755
1009.412100 -3.084219
1009.655100 -1.097591
1009.898200 0.538853
1010.141300 -0.111099
1010.384400 -0.195335
1010.627500 1.471047
1010.870600 0.088604
1011.113700 -0.080070
1011.356800 -0.293073
1011.600000 -1.529180
1011.843100 -0.026569
1012.086300 -3.053078
1012.329400 -0.508396
1012.572600 -3.061075
1012.815700 -0.315086
1013.058900 -2.953276
1013.302100 0.860876
1013.545200 -0.320087
1013.788400 -0.347836
1014.031600 0.000000
1014.274800 -0.078633
1014.518000 -0.057356
1014.761300 0.100896
1015.004500 -2.836957
1015.247700 0.117042
1015.490900 -2.982723
1015.734200 0.203171
1015.977400 -0.774543
1016.220700 -1.518514
1016.464000 0.429844
1016.707200 -1.081045
1016.950500 -0.594730
1017.193800 -0.128680
1017.437100 1.043779
1017.680400 -0.244767
1017.923700 -0.100749
1018.167000 0.221424
1018.410300 0.156314
1018.653600 0.148891
1018.896900 3.021603
1019.140300 0.131470
1019.383600 2.662758
1019.627000 -0.379968
1019.870300 2.465383
1020.113700 -0.072682
1020.357100 -0.584980
1020.600400 -0.099578
1020.843800 -0.023017
1021.087200 0.188140
1021.330600 -2.982723
1021.574000 0.290459
1021.817400 0.000000
1022.060800 -2.921686
1022.304200 0.000000
1022.547700 2.902003
1022.791100 2.432969
1023.034500 -0.188388
