# Wavelength	Absorbance
197.780200 2.878522
197.984200 0.076719
198.188200 -0.222199
198.392200 -0.025425
198.596300 2.935507
198.800300 -0.288318
199.004400 0.176615
199.208500 -0.258217
199.412600 -0.374362
199.616800 -0.169882
199.820900 -0.793972
200.025100 2.877947
200.229200 -0.753064
200.433400 3.008600
200.637600 2.745075
200.841800 2.902003
201.046100 3.008600
201.250300 0.004716
201.454600 -0.067581
201.658900 -0.232601
201.863100 -0.175211
202.067400 2.760422
202.271800 0.036106
202.476100 0.227209
202.680500 0.220988
202.884800 -0.052564
203.089200 1.636688
203.293600 0.459517
203.498000 0.408134
203.702400 -0.642177
203.906900 -0.669348
204.111300 0.000000
204.315800 -0.448027
204.520300 -0.170292
204.724800 2.587711
204.929300 -0.108951
205.133800 0.535063
205.338400 0.534644
205.543000 0.053831
205.747500 -0.529242
205.952100 -0.378278
206.156700 0.152104
206.361400 -2.758155
206.566000 -0.828258
206.770600 3.168203
206.975300 -0.836832
207.180000 -2.071882
207.384700 0.082561
207.589400 -2.882525
207.794100 2.480007
207.998900 -0.502290
208.203600 3.152288
208.408400 -0.070581
208.613200 -0.074115
208.818000 2.495544
209.022800 -0.544068
209.227600 -0.385544
209.432500 0.870522
209.637300 -0.385170
209.842200 -0.611330
210.047100 -0.440148
210.252000 -0.817325
210.456900 0.098247
210.661800 0.057555
210.866800 0.247496
211.071800 0.165967
211.276700 -0.527259
211.481700 0.153198
211.686700 -0.471004
211.891800 -0.508106
212.096800 0.278593
212.301800 2.890421
212.506900 -0.186765
212.712000 2.965672
212.917100 0.145355
213.122200 0.062830
213.327300 0.338368
213.532500 -1.826075
213.737600 -0.293556
213.942800 1.447158
214.148000 -0.499854
214.353200 0.000000
214.558400 -0.213800
214.763600 -0.018464
214.968900 -0.320431
215.174100 0.071466
215.379400 0.000000
215.584700 2.846955
215.790000 -0.142155
215.995300 -0.195577
216.200700 -0.311423
216.406000 -0.320453
216.611400 -0.582257
216.816800 -0.104735
217.022200 -0.261348
217.227600 0.479978
217.433000 -0.112776
217.638400 -0.048940
217.843900 -0.592438
218.049400 0.000000
218.254800 0.150577
218.460300 3.008600
218.665900 -0.046576
218.871400 0.028772
219.076900 0.341004
219.282500 -0.072075
219.488100 1.384517
219.693600 -0.333699
219.899200 0.464184
220.104900 0.266503
220.310500 -0.874659
220.516100 0.000000
220.721800 -0.096793
220.927500 -0.079918
221.133200 0.031599
221.338900 2.299943
221.544600 0.105016
221.750300 0.897997
221.956100 -0.275003
222.161800 2.338456
222.367600 -0.298104
222.573400 -0.487845
222.779200 -2.532754
222.985000 -3.073352
223.190900 0.484696
223.396700 0.211243
223.602600 -0.524999
223.808500 -0.052479
224.014400 -0.063282
224.220300 0.247087
224.426200 -0.497626
224.632200 -0.116936
224.838100 0.241086
225.044100 0.367655
225.250100 -0.388291
225.456100 -0.497851
225.662100 -0.531300
225.868100 -0.243963
226.074200 -0.284523
226.280200 -3.137987
226.486300 -0.432027
226.692400 -3.200029
226.898500 0.452068
227.104600 -0.264242
227.310700 0.997991
227.516900 2.833784
227.723000 -1.193848
227.929200 0.335873
228.135400 0.050331
228.341600 -0.451138
228.547800 0.994283
228.754100 0.593958
228.960300 -0.812153
229.166600 0.000000
229.372900 -0.330850
229.579100 -0.382533
229.785500 -0.419697
229.991800 -2.414257
230.198100 -0.333634
230.404500 -1.206180
230.610800 0.498741
230.817200 0.000000
231.023600 -0.003895
231.230000 -0.427543
231.436400 0.463869
231.642900 1.320562
231.849300 -0.232795
232.055800 -0.940302
232.262300 0.363143
232.468800 0.014559
232.675300 0.587625
232.881800 2.599883
233.088400 0.269404
233.294900 2.550228
233.501500 -0.490870
233.708100 0.000000
233.914700 -0.092494
234.121300 0.000000
234.327900 0.446287
234.534600 0.351731
234.741300 3.097604
234.947900 2.736397
235.154600 1.292256
235.361300 3.122544
235.568000 -0.519938
235.774800 -0.335065
235.981500 2.562293
236.188300 -2.475671
236.395100 -0.311976
236.601800 -2.037426
236.808700 0.022426
237.015500 -0.226945
237.222300 -0.340539
237.429200 0.191938
237.636000 2.440909
237.842900 1.851258
238.049800 0.547487
238.256700 -0.497851
238.463600 0.104292
238.670600 1.026329
238.877500 -0.215704
239.084500 -3.131298
239.291500 -0.080726
239.498500 0.419438
239.705500 -0.414213
239.912500 -1.170681
240.119500 -1.427407
240.326600 -0.947655
240.533700 0.000000
240.740700 -0.542581
240.947800 -0.312209
241.154900 0.255728
241.362100 0.120114
241.569200 2.632457
241.776400 -0.089360
241.983500 0.957829
242.190700 0.417951
242.397900 0.000000
242.605100 -0.572771
242.812400 -0.691271
243.019600 0.097719
243.226900 -0.671359
243.434100 -0.190178
243.641400 0.405983
243.848700 3.012837
244.056000 -3.320354
244.263400 -0.241104
244.470700 0.433451
244.678100 -0.233544
244.885400 0.142011
245.092800 -0.223651
245.300200 2.357935
245.507600 0.075701
245.715100 0.036805
245.922500 -0.415728
246.130000 1.230449
246.337500 0.289238
246.544900 2.396199
246.752400 0.559402
246.960000 0.084257
247.167500 0.027007
247.375000 -2.988113
247.582600 3.025715
247.790200 1.243038
247.997800 3.025715
248.205400 3.262925
248.413000 -0.468894
248.620600 2.727541
248.828300 0.204633
249.035900 0.381265
249.243600 -0.076196
249.451300 1.619638
249.659000 0.275587
249.866700 0.724158
250.074500 0.537922
250.282200 0.093276
250.490000 -0.019790
250.697800 2.846955
250.905600 -0.561386
251.113400 -0.270100
251.321200 -0.329183
251.529000 0.064117
251.736900 0.089046
251.944700 0.129008
252.152600 0.201098
252.360500 -0.172407
252.568400 0.157608
252.776300 2.397940
252.984300 -0.471828
253.192200 0.036525
253.400200 0.328622
253.608200 0.269469
253.816200 0.249374
254.024200 -0.215752
254.232200 -0.773393
254.440200 -2.905796
254.648300 -0.662308
254.856400 -0.486798
255.064400 -0.055255
255.272500 -0.176554
255.480600 3.104828
255.688800 -3.073352
255.896900 0.851218
256.105100 0.511095
256.313200 0.422403
256.521400 2.827369
256.729600 -0.196741
256.937800 3.171434
257.146000 -0.431243
257.354300 -2.788875
257.562500 0.079616
257.770800 -2.583199
257.979100 0.377781
258.187400 -0.290720
258.395700 0.847257
258.604000 -0.053862
258.812400 -0.049872
259.020700 0.181647
259.229100 -0.076196
259.437500 1.577951
259.645900 0.073878
259.854300 -0.100115
260.062700 3.125481
260.271100 -0.496426
260.479600 0.448269
260.688100 0.057143
260.896500 0.303951
261.105000 -1.355232
261.313500 -0.136978
261.522100 0.368916
261.730600 -0.287289
261.939200 -0.129662
262.147700 -0.034591
262.356300 -0.203827
262.564900 -0.380422
262.773500 0.089846
262.982200 0.053808
263.190800 -2.725095
263.399500 1.027849
263.608100 3.039017
263.816800 0.177296
264.025500 -0.842599
264.234200 -0.790539
264.442900 -0.804254
264.651700 0.564850
264.860400 -0.425733
265.069200 0.518398
265.278000 0.096023
265.486800 0.470741
265.695600 -0.599357
265.904400 0.106374
266.113300 -0.496332
266.322100 3.063333
266.531000 0.257040
266.739900 0.115489
266.948800 1.088380
267.157700 -0.032185
267.366600 0.426989
267.575500 -0.159701
267.784500 -0.626152
267.993500 0.205882
268.202400 2.970812
268.411400 -0.074612
268.620500 0.317131
268.829500 -0.446482
269.038500 -0.854785
269.247600 0.045798
269.456600 2.008600
269.665700 -0.283526
269.874800 0.013095
270.083900 0.466397
270.293100 -1.397940
270.502200 -0.103358
270.711400 -0.997399
270.920500 -0.154328
271.129700 -0.055966
271.338900 0.245207
271.548100 2.089905
271.757300 0.305100
271.966600 2.890421
272.175800 0.649220
272.385100 0.802166
272.594400 0.791835
272.803700 -0.081859
273.013000 -0.428546
273.222300 2.994757
273.431600 0.040740
273.641000 0.211960
273.850400 -0.468400
274.059700 0.387252
274.269100 0.240565
274.478500 -0.360690
274.688000 0.117975
274.897400 -0.072232
275.106900 -1.809128
275.316300 -0.218780
275.525800 0.378651
275.735300 -2.583199
275.944800 -0.332307
276.154300 -0.454845
276.363900 0.130313
276.573400 2.840106
276.783000 2.965672
276.992600 -0.291031
277.202200 0.049452
277.411800 -0.294814
277.621400 -0.368673
277.831000 0.559887
278.040700 0.136144
278.250300 0.376157
278.460000 -0.252859
278.669700 -0.144046
278.879400 -0.811060
279.089100 -0.404249
279.298900 0.072597
279.508600 0.581671
279.718400 0.184279
279.928100 0.000000
280.137900 0.134386
280.347700 -0.316444
280.557600 -0.163558
280.767400 3.039017
280.977200 2.872156
281.187100 -2.505150
281.397000 -0.073852
281.606900 0.000000
281.816800 0.269764
282.026700 -0.590967
282.236600 0.897577
282.446600 2.924279
282.656500 -2.037426
282.866500 -0.102625
283.076500 0.052899
283.286500 0.465943
283.496500 3.030600
283.706500 0.218992
283.916600 0.216952
284.126600 0.845098
284.336700 -0.272657
284.546800 -0.119859
284.756900 3.025715
284.967000 0.107651
285.177100 0.598924
285.387300 -3.200029
285.597400 3.017033
285.807600 1.525045
286.017800 0.789096
286.228000 0.000000
286.438200 -0.126545
286.648400 2.940516
286.858700 0.407957
287.068900 -0.280970
287.279200 -0.226396
287.489500 0.005040
287.699800 0.600257
287.910100 -0.249228
288.120400 -0.222005
288.330800 -0.728794
288.541100 0.176573
288.751500 2.217484
288.961900 -0.397807
289.172300 0.000000
289.382700 -0.063170
289.593100 -0.501188
289.803500 -2.285557
290.014000 0.177001
290.224500 -0.219797
290.434900 -2.905796
290.645400 -0.019554
290.855900 2.653213
291.066500 0.263603
291.277000 0.137912
291.487500 -0.401330
291.698100 -0.209999
291.908700 -0.032611
292.119300 1.233110
292.329900 0.083928
292.540500 -0.592000
292.751100 0.061852
292.961800 -2.409933
293.172400 -0.250005
293.383100 -2.916980
293.593800 -0.426682
293.804500 -0.361788
294.015200 0.570525
294.226000 -2.959041
294.436700 -0.266239
294.647500 0.008955
294.858200 -0.076247
295.069000 3.055378
295.279800 -0.656476
295.490600 0.000000
295.701500 3.059185
295.912300 1.684845
296.123200 2.645668
296.334000 0.030911
296.544900 0.243457
296.755800 -0.053266
296.966700 -0.344801
297.177700 0.238391
297.388600 -0.153487
297.599500 -0.488642
297.810500 0.083364
298.021500 1.323144
298.232500 -0.050106
298.443500 1.690196
298.654500 0.307133
298.865600 0.001302
299.076600 -0.502290
299.287700 -3.033021
299.498800 0.493554
299.709900 2.902003
299.921000 0.064549
300.132100 0.455421
300.343200 0.512291
300.554400 -0.479821
300.765500 -0.256891
300.976700 -2.988113
301.187900 0.176604
301.399100 0.125161
301.610300 0.371213
301.821500 1.966799
302.032800 0.498106
302.244100 0.089567
302.455300 -0.360429
302.666600 -0.164553
302.877900 0.014955
303.089200 -0.536381
303.300600 0.603402
303.511900 0.465662
303.723300 -0.445678
303.934600 0.027463
304.146000 -1.564835
304.357400 -0.535980
304.568800 -0.186066
304.780300 0.150896
304.991700 -0.222276
305.203100 -0.311357
305.414600 0.210269
305.626100 -0.622514
305.837600 0.069826
306.049100 2.775974
306.260600 -0.203154
306.472200 -0.637012
306.683700 0.536028
306.895300 2.575188
307.106900 0.860657
307.318400 0.855652
307.530100 1.127818
307.741700 0.570652
307.953300 0.574082
308.165000 -2.758155
308.376600 0.223897
308.588300 0.384960
308.800000 -0.069234
309.011700 0.199330
309.223400 3.125806
309.435100 -0.274845
309.646900 -0.157717
309.858600 -0.199310
310.070400 0.048058
310.282200 1.447158
310.494000 0.087100
310.705800 0.426264
310.917600 -0.259793
311.129500 -0.371281
311.341300 0.223094
311.553200 0.472842
311.765100 -0.134909
311.977000 0.325137
312.188900 0.304978
312.400800 0.042487
312.612700 0.454129
312.824700 0.353515
313.036600 1.332890
313.248600 0.299013
313.460600 -0.066014
313.672600 0.225475
313.884600 0.117410
314.096700 -0.441510
314.308700 0.970812
314.520800 3.104828
314.732800 0.032819
314.944900 0.342671
315.157000 0.108553
315.369200 0.133884
315.581300 3.082785
315.793400 2.653213
316.005600 -0.066799
316.217700 0.240319
316.429900 0.241421
316.642100 0.692532
316.854300 0.134730
317.066600 0.580920
317.278800 3.417139
317.491100 0.503869
317.703300 1.938320
317.915600 0.037091
318.127900 0.396154
318.340200 0.308729
318.552500 1.076296
318.764900 -0.218876
318.977200 0.712498
319.189600 0.471486
319.401900 0.420430
319.614300 3.245019
319.826700 -0.062018
320.039200 0.089607
320.251600 0.178908
320.464000 0.142023
320.676500 -0.050681
320.889000 -0.728854
321.101400 0.641319
321.313900 0.192666
321.526500 0.622484
321.739000 1.005509
321.951500 3.472903
322.164100 0.656909
322.376600 0.227197
322.589200 1.700101
322.801800 0.127738
323.014400 1.075415
323.227000 0.052329
323.439700 0.478392
323.652300 0.405712
323.865000 3.374748
324.077700 0.477121
324.290400 0.393288
324.503100 0.534102
324.715800 0.460635
324.928500 0.255729
325.141200 0.195808
325.354000 1.108094
325.566800 0.392051
325.779600 0.661586
325.992400 0.943642
326.205200 0.391513
326.418000 0.535842
326.630800 0.540102
326.843700 0.356703
327.056600 0.562019
327.269400 0.328483
327.482300 0.743114
327.695200 0.447444
327.908200 0.569875
328.121100 0.429444
328.334000 0.279968
328.547000 0.833231
328.760000 0.514587
328.973000 0.696458
329.186000 0.226852
329.399000 0.263501
329.612000 0.777149
329.825100 0.516204
330.038100 0.231986
330.251200 0.491885
330.464300 0.709396
330.677400 0.647371
330.890500 0.608354
331.103600 1.489042
331.316700 1.013581
331.529900 3.658298
331.743100 0.350629
331.956200 3.661339
332.169400 2.975776
332.382600 0.417415
332.595900 2.342660
332.809100 0.935449
333.022300 0.362356
333.235600 3.633468
333.448900 0.523937
333.662200 0.752048
333.875500 0.738447
334.088800 3.518251
334.302100 0.570552
334.515400 0.858214
334.728800 0.692969
334.942200 1.391428
335.155500 0.429177
335.368900 0.586896
335.582300 0.440850
335.795800 0.476939
336.009200 0.479478
336.222700 1.256304
336.436100 3.725258
336.649600 1.510392
336.863100 0.759073
337.076600 1.311364
337.290100 2.078630
337.503600 1.493121
337.717200 0.320748
337.930700 0.494829
338.144300 1.248283
338.357900 0.245344
338.571500 0.545701
338.785100 1.033888
338.998700 0.441751
339.212400 0.592856
339.426000 0.646565
339.639700 0.878391
339.853300 0.537707
340.067000 0.910158
340.280700 1.939519
340.494500 1.346029
340.708200 0.956668
340.921900 3.796644
341.135700 0.650089
341.349500 2.333326
341.563300 0.630764
341.777100 3.818094
341.990900 1.717222
342.204700 1.989968
342.418500 0.853453
342.632400 0.881559
342.846300 0.694589
343.060100 0.754503
343.274000 3.222976
343.487900 0.965952
343.701900 0.779406
343.915800 1.260267
344.129700 0.640361
344.343700 0.809057
344.557700 1.237494
344.771700 3.809694
344.985700 1.070025
345.199700 3.834484
345.413700 0.764340
345.627700 3.783332
345.841800 0.406180
346.055900 1.225735
346.269900 0.619446
346.484000 0.949714
346.698100 1.051899
346.912300 1.345190
347.126400 0.978128
347.340600 3.899164
347.554700 0.618918
347.768900 1.112535
347.983100 1.532125
348.197300 1.085789
348.411500 3.880871
348.625700 0.728773
348.840000 0.825264
349.054200 3.926085
349.268500 0.752860
349.482800 3.285951
349.697100 1.015839
349.911400 1.506764
350.125700 1.040167
350.340000 1.043553
350.554400 0.959107
350.768700 1.284417
350.983100 0.754063
351.197500 0.778656
351.411900 1.035536
351.626300 3.954918
351.840700 0.905366
352.055200 0.531774
352.269600 1.076946
352.484100 1.301517
352.698600 0.678530
352.913100 1.486924
353.127600 0.897133
353.342100 1.617852
353.556600 1.191256
353.771200 0.768736
353.985800 0.819139
354.200300 3.930898
354.414900 0.923427
354.629500 0.718777
354.844100 1.286703
355.058800 0.947393
355.273400 3.971369
355.488100 0.844564
355.702700 0.918096
355.917400 0.781463
356.132100 0.991042
356.346800 1.150770
356.561500 1.421166
356.776300 0.908748
356.991000 0.970870
357.205800 3.987264
357.420600 0.884740
357.635300 0.885830
357.850100 0.693923
358.065000 1.385553
358.279800 2.582609
358.494600 1.454845
358.709500 0.931892
358.924300 0.812042
359.139200 2.001789
359.354100 0.646570
359.569000 0.991756
359.783900 0.717985
359.998900 0.800007
360.213800 1.906003
360.428800 0.839367
360.643800 1.179040
360.858700 1.455796
361.073700 1.145732
361.288800 4.042142
361.503800 1.357135
361.718800 1.816219
361.933900 0.871337
362.148900 0.654761
362.364000 1.411514
362.579100 0.931547
362.794200 0.987208
363.009300 0.812895
363.224500 4.031206
363.439600 0.835914
363.654800 0.852575
363.869900 1.021271
364.085100 4.019947
364.300300 1.775153
364.515500 4.049102
364.730800 1.124325
364.946000 1.076971
365.161200 1.050502
365.376500 0.955062
365.591800 1.039026
365.807100 1.649335
366.022400 0.945858
366.237700 1.471640
366.453000 0.907175
366.668400 1.056354
366.883700 4.063634
367.099100 1.183306
367.314500 1.228636
367.529900 0.993929
367.745300 0.850332
367.960700 0.840177
368.176100 1.035405
368.391600 4.101850
368.607000 0.818334
368.822500 0.873102
369.038000 1.864616
369.253500 0.955831
369.469000 1.074115
369.684500 1.209091
369.900100 0.956550
370.115600 4.067926
370.331200 0.804706
370.546800 0.844654
370.762400 1.106780
370.978000 1.382895
371.193600 0.898605
371.409200 1.417227
371.624900 0.954963
371.840500 0.865158
372.056200 1.201678
372.271900 4.101128
372.487600 1.894626
372.703300 4.129915
372.919000 0.982291
373.134800 1.320105
373.350500 1.426065
373.566300 1.548256
373.782000 1.022722
373.997800 1.883941
374.213600 1.016874
374.429400 1.208571
374.645300 1.360429
374.861100 1.425378
375.077000 1.403860
375.292800 1.184506
375.508700 4.212241
375.724600 4.210586
375.940500 4.218404
376.156400 1.073392
376.372400 1.192762
376.588300 4.218667
376.804300 4.234720
377.020300 4.247581
377.236200 0.955779
377.452200 1.204237
377.668200 1.123633
377.884300 1.301316
378.100300 1.014467
378.316400 1.017721
378.532400 2.092051
378.748500 1.352454
378.964600 1.455120
379.180700 2.072865
379.396800 4.318189
379.612900 0.936229
379.829100 4.308394
380.045200 4.285760
380.261400 2.137014
380.477600 1.245734
380.693800 1.148004
380.910000 1.897093
381.126200 1.142600
381.342400 1.202357
381.558700 1.626575
381.774900 0.977065
381.991200 1.153255
382.207500 1.176681
382.423800 0.961383
382.640100 1.758354
382.856400 1.616241
383.072800 1.295016
383.289100 1.722653
383.505500 4.335458
383.721900 1.433462
383.938200 1.298079
384.154600 1.271747
384.371100 1.143542
384.587500 0.986686
384.803900 1.139003
385.020400 0.852127
385.236800 1.582545
385.453300 1.278094
385.669800 1.781993
385.886300 1.121946
386.102800 1.110922
386.319400 1.347618
386.535900 1.208215
386.752500 1.805382
386.969000 1.473357
387.185600 1.304458
387.402200 4.400210
387.618800 1.183615
387.835500 1.127077
388.052100 0.920100
388.268700 1.031823
388.485400 1.174873
388.702100 1.226541
388.918800 1.118628
389.135500 1.146886
389.352200 1.097835
389.568900 1.095952
389.785600 1.172569
390.002400 0.838036
390.219200 0.953001
390.435900 1.021839
390.652700 0.856785
390.869500 1.012592
391.086300 0.927631
391.303200 0.992274
391.520000 0.803341
391.736900 0.815789
391.953700 0.757334
392.170600 0.784257
392.387500 0.759285
392.604400 0.727606
392.821300 0.814728
393.038300 0.858610
393.255200 0.841586
393.472200 0.655610
393.689100 0.682519
393.906100 0.743635
394.123100 0.604573
394.340100 0.809244
394.557200 0.626645
394.774200 0.733856
394.991200 0.659048
395.208300 0.680671
395.425400 0.640672
395.642500 0.568499
395.859600 0.563394
396.076700 0.546077
396.293800 0.570831
396.510900 0.541676
396.728100 0.615494
396.945300 0.637894
397.162400 0.516031
397.379600 0.579724
397.596800 0.584852
397.814000 0.536164
398.031300 0.488075
398.248500 0.496289
398.465800 0.576275
398.683000 0.466844
398.900300 0.501488
399.117600 0.467174
399.334900 0.477133
399.552200 0.422266
399.769600 0.379723
399.986900 0.437953
400.204300 0.411561
400.421600 0.486018
400.639000 0.480986
400.856400 0.427389
401.073800 0.452057
401.291200 0.432840
401.508700 0.440115
401.726100 0.448515
401.943600 0.396100
402.161000 0.393001
402.378500 0.376388
402.596000 0.382350
402.813500 0.362581
403.031000 0.411070
403.248600 0.326017
403.466100 0.351456
403.683700 0.350882
403.901300 0.417458
404.118900 0.356056
404.336500 0.361637
404.554100 0.336325
404.771700 0.341707
404.989300 0.300169
405.207000 0.350179
405.424600 0.290312
405.642300 0.311032
405.860000 0.375079
406.077700 0.344830
406.295400 0.331040
406.513100 0.312153
406.730900 0.279713
406.948600 0.312111
407.166400 0.373883
407.384200 0.265466
407.602000 0.296140
407.819800 0.270537
408.037600 0.331158
408.255400 0.322723
408.473300 0.278113
408.691100 0.306314
408.909000 0.278741
409.126900 0.334708
409.344800 0.267228
409.562700 0.286397
409.780600 0.288026
409.998500 0.319047
410.216500 0.290764
410.434400 0.286747
410.652400 0.274501
410.870400 0.250208
411.088400 0.265925
411.306400 0.219682
411.524400 0.254103
411.742400 0.250718
411.960500 0.231995
412.178500 0.231354
412.396600 0.229781
412.614700 0.274695
412.832800 0.235565
413.050900 0.265478
413.269000 0.227870
413.487100 0.258653
413.705300 0.242240
413.923400 0.280941
414.141600 0.262875
414.359800 0.252614
414.578000 0.279772
414.796200 0.241426
415.014400 0.266940
415.232600 0.214913
415.450900 0.224043
415.669200 0.228622
415.887400 0.237087
416.105700 0.251352
416.324000 0.242195
416.542300 0.223512
416.760600 0.266143
416.979000 0.219030
417.197300 0.246774
417.415700 0.259078
417.634100 0.222665
417.852400 0.219924
418.070800 0.198144
418.289300 0.238264
418.507700 0.250810
418.726100 0.234184
418.944600 0.207552
419.163000 0.220324
419.381500 0.226790
419.600000 0.264078
419.818500 0.209723
420.037000 0.234494
420.255500 0.228828
420.474100 0.229732
420.692600 0.243306
420.911200 0.240619
421.129800 0.220100
421.348300 0.220889
421.566900 0.228688
421.785600 0.244545
422.004200 0.245183
422.222800 0.209264
422.441500 0.249154
422.660100 0.225512
422.878800 0.261890
423.097500 0.215953
423.316200 0.211384
423.534900 0.206717
423.753600 0.298523
423.972400 0.227272
424.191100 0.250529
424.409900 0.225546
424.628700 0.208455
424.847500 0.246652
425.066300 0.245815
425.285100 0.215249
425.503900 0.244861
425.722800 0.245607
425.941600 0.249348
426.160500 0.203826
426.379300 0.210050
426.598200 0.225413
426.817100 0.244050
427.036100 0.227648
427.255000 0.245700
427.473900 0.234154
427.692900 0.243721
427.911800 0.274157
428.130800 0.217837
428.349800 0.266308
428.568800 0.268248
428.787800 0.248285
429.006800 0.241192
429.225900 0.247393
429.444900 0.243238
429.664000 0.202579
429.883100 0.236544
430.102200 0.220577
430.321300 0.246056
430.540400 0.250530
430.759500 0.276700
430.978700 0.239271
431.197800 0.248200
431.417000 0.212216
431.636200 0.232884
431.855300 0.219236
432.074500 0.272849
432.293800 0.261920
432.513000 0.293084
432.732200 0.256780
432.951500 0.276534
433.170700 0.281295
433.390000 0.262832
433.609300 0.241601
433.828600 0.243143
434.047900 0.268337
434.267300 0.276408
434.486600 0.228993
434.705900 0.249598
434.925300 0.283430
435.144700 0.258659
435.364100 0.285012
435.583500 0.261134
435.802900 0.243623
436.022300 0.290262
436.241800 0.265600
436.461200 0.259882
436.680700 0.255514
436.900100 0.274157
437.119600 0.272366
437.339100 0.270589
437.558600 0.264129
437.778200 0.296528
437.997700 0.258710
438.217300 0.269204
438.436800 0.270980
438.656400 0.276990
438.876000 0.256126
439.095600 0.251222
439.315200 0.286719
439.534800 0.272396
439.754500 0.260845
439.974100 0.296657
440.193800 0.266171
440.413500 0.298807
440.633100 0.258613
440.852800 0.300927
441.072500 0.323591
441.292300 0.279604
441.512000 0.318393
441.731800 0.289141
441.951500 0.308618
442.171300 0.311861
442.391100 0.305705
442.610900 0.328802
442.830700 0.299972
443.050500 0.326366
443.270300 0.290963
443.490200 0.305408
443.710100 0.327899
443.929900 0.315194
444.149800 0.353956
444.369700 0.320155
444.589600 0.322504
444.809500 0.316073
445.029500 0.352452
445.249400 0.305935
445.469400 0.338256
445.689400 0.303456
445.909300 0.331178
446.129300 0.332227
446.349300 0.350120
446.569400 0.340781
446.789400 0.307554
447.009400 0.339008
447.229500 0.312580
447.449600 0.350924
447.669600 0.334729
447.889700 0.333723
448.109800 0.369809
448.330000 0.339699
448.550100 0.379610
448.770200 0.337987
448.990400 0.376992
449.210600 0.374216
449.430700 0.337247
449.650900 0.369166
449.871100 0.344993
450.091400 0.348550
450.311600 0.370318
450.531800 0.400328
450.752100 0.348656
450.972400 0.362772
451.192600 0.388415
451.412900 0.402677
451.633200 0.370246
451.853500 0.429275
452.073900 0.399515
452.294200 0.390498
452.514600 0.401284
452.734900 0.398495
452.955300 0.359180
453.175700 0.437105
453.396100 0.408712
453.616500 0.390344
453.836900 0.434359
454.057400 0.407415
454.277800 0.420676
454.498300 0.409610
454.718800 0.408184
454.939300 0.442282
455.159700 0.389766
455.380300 0.400056
455.600800 0.378419
455.821300 0.413415
456.041900 0.430224
456.262400 0.435628
456.483000 0.434466
456.703600 0.449454
456.924200 0.454817
457.144800 0.437510
457.365400 0.471541
457.586000 0.469425
457.806700 0.450909
458.027400 0.477367
458.248000 0.472594
458.468700 0.477818
458.689400 0.469500
458.910100 0.473218
459.130800 0.505782
459.351600 0.487546
459.572300 0.514300
459.793100 0.460436
460.013800 0.456694
460.234600 0.506663
460.455400 0.538237
460.676200 0.471348
460.897000 0.474270
461.117800 0.543693
461.338700 0.510093
461.559500 0.549798
461.780400 0.546642
462.001300 0.520724
462.222200 0.521567
462.443100 0.544712
462.664000 0.567810
462.884900 0.505087
463.105900 0.522585
463.326800 0.540563
463.547800 0.559987
463.768700 0.602561
463.989700 0.624126
464.210700 0.548879
464.431700 0.548986
464.652800 0.542870
464.873800 0.582204
465.094800 0.608089
465.315900 0.573894
465.537000 0.636152
465.758100 0.657324
465.979200 0.600348
466.200300 0.661193
466.421400 0.586153
466.642500 0.670511
466.863700 0.620990
467.084800 0.575722
467.306000 0.594134
467.527200 0.639067
467.748400 0.608283
467.969600 0.625513
468.190800 0.658140
468.412000 0.638478
468.633300 0.691761
468.854500 0.676538
469.075800 0.590761
469.297000 0.610156
469.518300 0.682128
469.739600 0.638061
469.961000 0.652833
470.182300 0.605963
470.403600 0.694376
470.625000 0.729761
470.846300 0.655137
471.067700 0.766250
471.289100 0.670233
471.510500 0.602537
471.731900 0.663559
471.953300 0.697491
472.174800 0.722196
472.396200 0.767713
472.617700 0.671340
472.839100 0.695320
473.060600 0.750902
473.282100 0.725552
473.503600 0.763614
473.725100 0.695353
473.946700 0.663959
474.168200 0.658068
474.389800 0.756353
474.611300 0.741501
474.832900 0.749390
475.054500 0.719618
475.276100 0.744051
475.497700 0.805806
475.719300 0.818957
475.941000 0.871751
476.162600 0.747084
476.384300 0.910162
476.606000 0.825296
476.827700 0.754984
477.049400 0.799372
477.271100 0.796114
477.492800 0.832291
477.714500 0.889136
477.936300 0.782262
478.158000 0.815589
478.379800 0.851386
478.601600 0.815497
478.823400 0.766651
479.045200 0.835134
479.267000 0.830894
479.488800 0.888431
479.710700 0.849328
479.932500 0.812512
480.154400 0.865964
480.376300 0.896344
480.598200 0.881326
480.820100 0.886177
481.042000 0.915752
481.263900 0.903358
481.485900 0.815969
481.707800 0.853206
481.929800 0.942055
482.151700 0.910020
482.373700 0.920102
482.595700 0.867686
482.817700 0.967150
483.039800 0.967001
483.261800 0.888854
483.483800 1.106765
483.705900 0.893980
483.928000 1.044472
484.150100 0.850294
484.372100 0.940931
484.594300 0.977105
484.816400 0.910377
485.038500 1.007518
485.260600 1.103457
485.482800 1.032919
485.705000 1.007834
485.927100 1.070420
486.149300 1.033247
486.371500 1.048626
486.593700 1.034272
486.816000 1.053959
487.038200 1.041089
487.260500 1.067996
487.482700 0.958049
487.705000 0.997350
487.927300 1.054042
488.149600 0.996778
488.371900 1.077865
488.594200 0.889642
488.816500 0.944781
489.038900 0.962127
489.261200 1.064075
489.483600 1.219485
489.706000 1.271861
489.928400 1.086135
490.150800 1.089975
490.373200 1.014497
490.595600 1.144920
490.818000 1.073347
491.040500 1.213238
491.263000 1.007200
491.485400 1.279975
491.707900 1.090653
491.930400 1.022941
492.152900 1.049509
492.375500 1.114568
492.598000 0.997820
492.820500 1.060024
493.043100 1.050220
493.265700 1.190395
493.488200 1.053243
493.710800 1.234685
493.933400 1.082152
494.156100 1.233714
494.378700 1.150418
494.601300 1.127460
494.824000 1.180499
495.046600 1.210341
495.269300 1.116277
495.492000 1.427726
495.714700 1.073214
495.937400 1.120203
496.160100 1.149787
496.382900 1.332192
496.605600 1.141420
496.828400 1.375434
497.051100 1.072872
497.273900 1.253316
497.496700 0.989832
497.719500 1.216329
497.942300 1.194147
498.165200 1.243051
498.388000 1.067210
498.610900 1.171608
498.833700 1.235748
499.056600 1.124670
499.279500 1.150613
499.502400 1.119943
499.725300 1.109675
499.948200 1.183631
500.171200 1.074602
500.394100 1.147434
500.617100 1.146807
500.840000 1.136639
501.063000 1.155838
501.286000 1.205735
501.509000 1.427413
501.732000 1.011066
501.955100 1.165373
502.178100 1.350064
502.401200 1.180871
502.624200 1.234237
502.847300 1.185860
503.070400 1.362533
503.293500 1.403947
503.516600 1.222642
503.739700 1.291813
503.962800 1.101059
504.186000 1.120976
504.409200 1.145508
504.632300 1.167374
504.855500 1.285511
505.078700 1.123920
505.301900 1.240569
505.525100 1.179495
505.748300 1.318795
505.971600 1.065591
506.194800 1.327415
506.418100 1.132056
506.641400 1.416584
506.864700 1.163048
507.088000 1.123178
507.311300 1.056962
507.534600 1.133788
507.757900 1.134267
507.981300 1.072705
508.204600 1.275432
508.428000 1.179641
508.651400 1.053453
508.874800 1.360066
509.098200 1.266089
509.321600 1.253247
509.545000 1.371318
509.768500 1.296205
509.991900 1.148517
510.215400 1.740824
510.438800 1.105696
510.662300 1.145502
510.885800 1.283914
511.109300 1.267357
511.332900 1.116378
511.556400 1.351214
511.779900 1.171097
512.003500 1.167595
512.227000 1.194690
512.450600 1.317513
512.674200 1.078998
512.897800 1.234312
513.121400 1.102638
513.345100 1.343328
513.568700 1.446845
513.792300 1.307637
514.016000 1.010072
514.239700 1.153706
514.463400 1.026317
514.687100 1.148749
514.910800 1.265127
515.134500 1.329981
515.358200 1.087034
515.581900 1.351047
515.805700 1.073925
516.029500 1.271120
516.253200 1.113943
516.477000 1.113445
516.700800 1.181200
516.924600 1.144521
517.148500 1.182843
517.372300 1.173669
517.596100 1.252141
517.820000 1.267510
518.043900 1.249777
518.267700 1.077516
518.491600 1.075923
518.715500 1.196327
518.939500 1.011382
519.163400 0.969137
519.387300 1.337775
519.611300 0.996912
519.835200 1.002901
520.059200 0.990032
520.283200 1.046825
520.507200 1.116747
520.731200 1.125721
520.955200 1.260196
521.179200 1.263615
521.403300 1.176481
521.627300 1.067826
521.851400 1.032009
522.075500 0.932862
522.299600 0.982248
522.523700 1.069618
522.747800 0.962786
522.971900 1.182615
523.196000 1.124144
523.420200 1.138216
523.644300 1.032092
523.868500 1.132810
524.092700 0.809939
524.316900 0.881936
524.541100 1.062302
524.765300 0.919991
524.989500 0.892244
525.213800 0.942089
525.438000 0.838163
525.662300 0.921586
525.886500 0.989308
526.110800 0.999775
526.335100 0.829664
526.559400 0.876915
526.783700 0.889823
527.008100 0.863686
527.232400 0.946405
527.456800 1.296133
527.681100 1.038045
527.905500 1.019656
528.129900 0.916617
528.354300 0.941559
528.578700 0.958110
528.803100 0.922569
529.027600 0.858895
529.252000 1.061778
529.476500 0.888735
529.700900 0.957321
529.925400 0.908151
530.149900 0.858902
530.374400 0.960629
530.598900 0.911442
530.823400 0.849292
531.048000 0.927680
531.272500 0.863241
531.497100 0.958243
531.721700 0.841986
531.946200 0.844109
532.170800 0.836648
532.395400 0.931454
532.620000 0.832523
532.844700 1.023915
533.069300 0.895969
533.294000 0.804827
533.518600 0.853285
533.743300 0.819009
533.968000 0.846338
534.192700 0.837644
534.417400 0.805325
534.642100 0.799639
534.866800 0.820702
535.091600 0.786944
535.316300 0.780531
535.541100 0.782378
535.765900 0.760428
535.990700 0.762241
536.215500 0.743754
536.440300 0.696969
536.665100 0.798654
536.889900 0.761538
537.114800 0.693829
537.339600 0.846861
537.564500 0.759411
537.789400 0.689319
538.014300 0.646009
538.239200 0.796512
538.464100 0.677512
538.689000 0.719106
538.913900 0.712144
539.138900 0.801489
539.363800 0.733163
539.588800 0.772941
539.813800 0.662300
540.038800 0.625504
540.263800 0.661674
540.488800 0.741997
540.713800 0.651065
540.938900 0.644595
541.163900 0.661721
541.389000 0.651191
541.614000 0.680764
541.839100 0.612016
542.064200 0.642296
542.289300 0.671511
542.514400 0.622817
542.739600 0.633062
542.964700 0.648612
543.189900 0.618337
543.415000 0.635092
543.640200 0.639135
543.865400 0.606415
544.090600 0.583597
544.315800 0.611912
544.541000 0.566058
544.766200 0.591640
544.991500 0.575772
545.216700 0.610883
545.442000 0.598153
545.667300 0.559058
545.892600 0.587225
546.117900 0.549621
546.343200 0.516296
546.568500 0.522653
546.793800 0.572456
547.019200 0.552019
547.244500 0.534362
547.469900 0.535252
547.695300 0.528923
547.920600 0.556839
548.146000 0.492916
548.371500 0.514989
548.596900 0.541482
548.822300 0.496501
549.047800 0.530803
549.273200 0.503185
549.498700 0.482096
549.724200 0.495007
549.949600 0.489530
550.175100 0.501993
550.400700 0.460302
550.626200 0.488366
550.851700 0.499289
551.077300 0.448437
551.302800 0.431576
551.528400 0.419276
551.754000 0.521710
551.979600 0.423359
552.205200 0.422875
552.430800 0.418498
552.656400 0.424024
552.882000 0.443695
553.107700 0.433232
553.333300 0.450656
553.559000 0.393886
553.784700 0.397867
554.010400 0.434266
554.236100 0.416440
554.461800 0.427903
554.687500 0.388199
554.913200 0.414719
555.139000 0.416063
555.364800 0.374273
555.590500 0.378843
555.816300 0.387060
556.042100 0.357227
556.267900 0.401457
556.493700 0.414420
556.719500 0.387449
556.945400 0.337118
557.171200 0.403300
557.397100 0.374172
557.623000 0.335691
557.848800 0.351089
558.074700 0.327937
558.300600 0.360669
558.526600 0.346096
558.752500 0.301905
558.978400 0.310864
559.204400 0.313359
559.430300 0.319219
559.656300 0.350430
559.882300 0.345535
560.108300 0.316841
560.334300 0.274411
560.560300 0.324431
560.786300 0.330637
561.012400 0.277638
561.238400 0.310179
561.464500 0.316879
561.690500 0.288452
561.916600 0.295585
562.142700 0.289253
562.368800 0.278836
562.594900 0.269374
562.821100 0.300505
563.047200 0.278527
563.273300 0.276122
563.499500 0.263609
563.725700 0.294748
563.951900 0.228907
564.178100 0.268320
564.404300 0.289070
564.630500 0.267850
564.856700 0.275546
565.082900 0.235145
565.309200 0.270682
565.535500 0.252268
565.761700 0.230520
565.988000 0.245408
566.214300 0.232002
566.440600 0.256660
566.666900 0.225080
566.893200 0.244527
567.119600 0.225326
567.345900 0.242686
567.572300 0.235999
567.798700 0.222917
568.025000 0.236795
568.251400 0.230194
568.477800 0.202368
568.704300 0.217251
568.930700 0.219061
569.157100 0.220488
569.383600 0.241692
569.610000 0.200066
569.836500 0.207650
570.063000 0.199743
570.289500 0.221503
570.516000 0.219072
570.742500 0.207855
570.969000 0.210380
571.195600 0.208188
571.422100 0.194988
571.648700 0.196881
571.875200 0.196734
572.101800 0.201590
572.328400 0.198701
572.555000 0.197747
572.781600 0.193682
573.008200 0.208339
573.234900 0.205068
573.461500 0.190154
573.688200 0.194110
573.914900 0.194758
574.141500 0.192746
574.368200 0.189870
574.594900 0.179589
574.821600 0.181115
575.048400 0.178870
575.275100 0.179769
575.501800 0.176836
575.728600 0.177062
575.955400 0.172130
576.182100 0.188992
576.408900 0.174336
576.635700 0.170980
576.862600 0.167942
577.089400 0.163636
577.316200 0.168489
577.543100 0.171504
577.769900 0.163963
577.996800 0.161632
578.223700 0.158405
578.450500 0.166081
578.677400 0.163872
578.904400 0.155449
579.131300 0.159603
579.358200 0.158986
579.585100 0.159082
579.812100 0.160516
580.039100 0.159897
580.266000 0.150733
580.493000 0.149752
580.720000 0.147799
580.947000 0.143881
581.174100 0.144188
581.401100 0.138938
581.628100 0.142032
581.855200 0.137280
582.082200 0.144229
582.309300 0.149364
582.536400 0.136206
582.763500 0.136291
582.990600 0.131276
583.217700 0.129949
583.444900 0.139273
583.672000 0.145309
583.899100 0.147632
584.126300 0.130996
584.353500 0.145223
584.580700 0.140626
584.807900 0.128982
585.035100 0.129671
585.262300 0.126462
585.489500 0.127275
585.716700 0.125190
585.944000 0.129595
586.171300 0.126851
586.398500 0.123584
586.625800 0.128931
586.853100 0.127844
587.080400 0.126641
587.307700 0.118404
587.535000 0.127579
587.762400 0.113626
587.989700 0.113021
588.217100 0.123875
588.444500 0.117472
588.671800 0.111314
588.899200 0.109077
589.126600 0.118018
589.354000 0.122608
589.581500 0.115567
589.808900 0.129250
590.036300 0.128993
590.263800 0.114392
590.491300 0.119579
590.718700 0.108754
590.946200 0.112623
591.173700 0.119790
591.401200 0.126526
591.628800 0.109404
591.856300 0.114575
592.083800 0.118309
592.311400 0.109045
592.538900 0.112636
592.766500 0.113146
592.994100 0.107676
593.221700 0.125671
593.449300 0.112834
593.676900 0.100126
593.904600 0.112023
594.132200 0.108584
594.359800 0.111324
594.587500 0.094813
594.815200 0.106823
595.042900 0.110796
595.270500 0.109664
595.498300 0.120136
595.726000 0.106368
595.953700 0.122204
596.181400 0.109685
596.409200 0.109306
596.636900 0.108682
596.864700 0.113826
597.092500 0.094641
597.320300 0.120959
597.548100 0.116801
597.775900 0.114938
598.003700 0.114211
598.231500 0.125753
598.459400 0.112744
598.687200 0.113846
598.915100 0.108476
599.143000 0.104632
599.370900 0.120696
599.598800 0.102764
599.826700 0.097689
600.054600 0.099614
600.282500 0.106228
600.510500 0.094663
600.738400 0.104057
600.966400 0.094947
601.194400 0.090768
601.422300 0.102085
601.650300 0.097346
601.878300 0.098977
602.106400 0.104106
602.334400 0.102657
602.562400 0.098865
602.790500 0.109103
603.018500 0.094784
603.246600 0.102074
603.474700 0.102919
603.702800 0.102146
603.930900 0.111936
604.159000 0.109459
604.387100 0.114141
604.615200 0.089109
604.843400 0.093011
605.071500 0.099805
605.299700 0.095989
605.527900 0.104090
605.756100 0.095050
605.984300 0.085852
606.212500 0.077485
606.440700 0.080094
606.668900 0.082372
606.897200 0.084290
607.125400 0.084984
607.353700 0.083477
607.581900 0.092813
607.810200 0.092557
608.038500 0.105613
608.266800 0.081612
608.495100 0.086850
608.723500 0.069816
608.951800 0.098455
609.180100 0.081032
609.408500 0.092353
609.636900 0.085342
609.865300 0.083023
610.093600 0.095788
610.322000 0.093205
610.550500 0.094394
610.778900 0.087655
611.007300 0.083004
611.235700 0.092552
611.464200 0.091744
611.692700 0.084014
611.921100 0.100005
612.149600 0.085309
612.378100 0.088745
612.606600 0.099860
612.835100 0.096708
613.063700 0.079196
613.292200 0.093139
613.520800 0.087048
613.749300 0.089943
613.977900 0.084520
614.206500 0.080199
614.435100 0.073873
614.663700 0.091646
614.892300 0.092925
615.120900 0.081156
615.349500 0.106093
615.578200 0.082658
615.806800 0.090742
616.035500 0.092139
616.264200 0.090151
616.492900 0.093316
616.721600 0.098003
616.950300 0.083136
617.179000 0.086887
617.407700 0.087519
617.636500 0.087391
617.865200 0.080205
618.094000 0.092968
618.322700 0.082833
618.551500 0.061351
618.780300 0.066684
619.009100 0.079321
619.237900 0.097626
619.466700 0.085509
619.695600 0.086901
619.924400 0.091081
620.153300 0.085222
620.382100 0.073321
620.611000 0.068393
620.839900 0.082659
621.068800 0.077179
621.297700 0.072994
621.526600 0.074340
621.755600 0.070490
621.984500 0.101049
622.213500 0.061296
622.442400 0.078222
622.671400 0.090049
622.900400 0.087290
623.129400 0.091362
623.358400 0.079566
623.587400 0.070743
623.816400 0.073013
624.045400 0.087693
624.274500 0.074043
624.503500 0.065496
624.732600 0.064042
624.961700 0.080307
625.190800 0.088352
625.419900 0.077840
625.649000 0.087075
625.878100 0.073012
626.107200 0.090927
626.336400 0.078062
626.565500 0.095688
626.794700 0.068662
627.023800 0.084559
627.253000 0.082965
627.482200 0.078306
627.711400 0.074802
627.940600 0.086963
628.169800 0.090312
628.399100 0.072982
628.628300 0.063557
628.857600 0.067917
629.086800 0.084969
629.316100 0.087042
629.545400 0.077519
629.774700 0.081426
630.004000 0.069530
630.233300 0.080247
630.462600 0.070904
630.692000 0.057244
630.921300 0.079624
631.150700 0.072410
631.380100 0.069066
631.609400 0.087021
631.838800 0.069752
632.068200 0.060419
632.297600 0.070661
632.527100 0.076165
632.756500 0.081108
632.985900 0.065549
633.215400 0.083562
633.444800 0.068674
633.674300 0.105650
633.903800 0.074333
634.133300 0.054014
634.362800 0.098440
634.592300 0.084012
634.821800 0.083255
635.051400 0.105333
635.280900 0.080677
635.510500 0.037251
635.740000 0.106319
635.969600 0.091599
636.199200 0.092624
636.428800 0.066024
636.658400 0.094366
636.888000 0.077509
637.117700 0.061697
637.347300 0.088671
637.577000 0.110979
637.806600 0.079349
638.036300 0.080059
638.266000 0.069012
638.495700 0.094189
638.725400 0.070701
638.955100 0.064113
639.184800 0.074236
639.414500 0.058723
639.644300 0.061193
639.874000 0.072297
640.103800 0.065831
640.333600 0.075881
640.563300 0.088684
640.793100 0.080447
641.022900 0.100281
641.252800 0.073226
641.482600 0.066220
641.712400 0.088081
641.942300 0.061695
642.172100 0.091793
642.402000 0.072183
642.631900 0.046280
642.861700 0.067553
643.091600 0.065585
643.321600 0.078754
643.551500 0.039431
643.781400 0.058589
644.011300 0.037961
644.241300 0.060196
644.471200 0.059447
644.701200 0.086346
644.931200 0.109518
645.161200 0.060475
645.391200 0.071229
645.621200 0.133180
645.851200 0.051107
646.081200 0.052783
646.311300 0.128094
646.541300 0.109071
646.771400 0.038154
647.001500 0.076846
647.231600 0.069426
647.461600 0.077738
647.691800 0.074675
647.921900 0.042535
648.152000 0.059196
648.382100 0.079421
648.612300 0.088039
648.842400 0.092892
649.072600 0.099093
649.302800 0.086546
649.532900 0.072737
649.763100 0.099240
649.993300 0.094404
650.223600 0.114631
650.453800 0.060056
650.684000 0.068207
650.914300 0.057730
651.144500 0.048004
651.374800 0.083821
651.605100 0.069655
651.835400 0.058306
652.065700 0.061640
652.296000 0.056440
652.526300 0.078481
652.756600 0.085211
652.987000 0.101198
653.217300 0.044007
653.447700 0.067178
653.678000 0.069720
653.908400 0.054656
654.138800 0.112301
654.369200 0.090028
654.599600 0.094719
654.830000 0.098721
655.060500 0.135062
655.290900 0.166987
655.521300 0.142499
655.751800 0.104123
655.982300 0.002910
656.212800 0.000974
656.443300 0.001458
656.673800 0.001232
656.904300 0.035154
657.134800 0.095232
657.365300 0.090515
657.595900 0.088350
657.826400 0.089751
658.057000 0.095841
658.287500 0.093585
658.518100 0.089125
658.748700 0.092928
658.979300 0.100034
659.209900 0.125161
659.440600 0.143255
659.671200 0.159232
659.901800 0.144220
660.132500 0.155543
660.363200 0.089342
660.593800 0.135211
660.824500 0.096349
661.055200 0.060539
661.285900 0.062066
661.516600 0.071453
661.747400 0.098528
661.978100 0.056568
662.208800 0.098294
662.439600 0.088894
662.670400 0.130722
662.901100 0.107606
663.131900 0.120301
663.362700 0.047979
663.593500 0.098581
663.824300 0.073438
664.055200 0.074098
664.286000 0.075214
664.516800 0.094193
664.747700 0.035762
664.978600 0.080193
665.209400 0.054496
665.440300 0.071041
665.671200 0.083523
665.902100 0.097242
666.133000 0.047819
666.364000 0.065657
666.594900 0.082412
666.825900 0.078346
667.056800 0.101230
667.287800 0.083982
667.518800 0.085474
667.749700 0.075683
667.980700 0.106403
668.211700 0.089498
668.442800 0.067862
668.673800 0.096209
668.904800 0.086882
669.135900 0.079517
669.366900 0.118888
669.598000 0.051965
669.829100 0.072007
670.060200 0.075466
670.291300 0.116078
670.522400 0.061824
670.753500 0.051450
670.984600 0.087363
671.215700 0.103331
671.446900 0.115399
671.678100 0.109391
671.909200 0.113741
672.140400 0.064068
672.371600 0.058978
672.602800 0.057252
672.834000 0.051930
673.065200 0.064296
673.296400 0.099503
673.527700 0.037687
673.758900 0.038646
673.990200 0.060946
674.221400 0.118177
674.452700 0.054968
674.684000 0.067118
674.915300 0.065897
675.146600 0.052401
675.377900 0.046562
675.609300 0.069323
675.840600 0.077170
676.071900 0.069802
676.303300 0.038704
676.534700 0.065295
676.766100 0.071532
676.997400 0.097058
677.228800 0.073250
677.460200 0.081029
677.691700 0.114559
677.923100 0.078617
678.154500 0.073734
678.386000 0.058067
678.617400 0.053888
678.848900 0.068114
679.080400 0.059987
679.311900 0.106485
679.543400 0.049148
679.774900 0.046731
680.006400 0.098362
680.237900 0.061774
680.469400 0.073569
680.701000 0.059895
680.932500 0.074399
681.164100 0.062120
681.395700 0.074674
681.627300 0.080659
681.858900 0.093069
682.090500 0.057574
682.322100 0.053929
682.553700 0.060647
682.785400 0.059163
683.017000 0.083224
683.248700 0.087465
683.480300 0.106218
683.712000 0.059386
683.943700 0.055027
684.175400 0.034126
684.407100 0.061058
684.638800 0.067668
684.870500 0.081681
685.102300 0.100759
685.334000 0.048618
685.565800 0.091123
685.797500 0.050082
686.029300 0.074638
686.261100 0.085106
686.492900 0.082691
686.724700 0.069131
686.956500 0.096118
687.188300 0.086287
687.420200 0.065840
687.652000 0.056745
687.883800 0.038114
688.115700 0.066640
688.347600 0.058134
688.579500 0.070332
688.811400 0.089439
689.043300 0.058655
689.275200 0.076643
689.507100 0.074982
689.739000 0.081628
689.971000 0.086208
690.202900 0.088069
690.434900 0.077192
690.666900 0.049565
690.898800 0.093917
691.130800 0.075892
691.362800 0.068077
691.594800 0.056414
691.826900 0.087533
692.058900 0.074968
692.290900 0.056871
692.523000 0.072237
692.755000 0.091292
692.987100 0.049472
693.219200 0.074540
693.451300 0.050568
693.683400 0.070059
693.915500 0.046964
694.147600 0.093328
694.379700 0.074033
694.611900 0.083075
694.844000 0.075281
695.076200 0.062989
695.308300 0.095044
695.540500 0.064934
695.772700 0.047407
696.004900 0.072902
696.237100 0.069939
696.469300 0.070645
696.701600 0.072103
696.933800 0.073990
697.166000 0.087901
697.398300 0.076964
697.630600 0.095179
697.862800 0.064911
698.095100 0.099780
698.327400 0.069141
698.559700 0.071770
698.792000 0.052826
699.024300 0.029603
699.256700 0.064143
699.489000 0.073482
699.721400 0.088435
699.953700 0.078441
700.186100 0.100356
700.418500 0.069983
700.650900 0.068597
700.883300 0.062531
701.115700 0.104455
701.348100 0.068687
701.580600 0.098382
701.813000 0.067953
702.045400 0.082780
702.277900 0.074433
702.510400 0.082540
702.742900 0.065809
702.975300 0.093534
703.207800 0.072881
703.440300 0.081961
703.672900 0.130047
703.905400 0.060601
704.137900 0.105806
704.370500 0.080095
704.603000 0.082218
704.835600 0.067081
705.068200 0.067591
705.300800 0.050182
705.533400 0.098549
705.766000 0.099415
705.998600 0.061118
706.231200 0.080440
706.463800 0.073525
706.696500 0.097870
706.929100 0.059589
707.161800 0.036775
707.394500 0.063617
707.627200 0.071471
707.859900 0.106804
708.092600 0.079907
708.325300 0.041533
708.558000 0.079283
708.790700 0.092812
709.023500 0.089100
709.256200 0.033394
709.489000 0.079426
709.721700 0.041948
709.954500 0.040543
710.187300 0.047410
710.420100 0.076265
710.652900 0.069609
710.885700 0.075766
711.118600 0.070895
711.351400 0.030252
711.584200 0.084247
711.817100 0.082617
712.050000 0.087968
712.282800 0.078487
712.515700 0.050556
712.748600 0.075531
712.981500 0.051824
713.214400 0.075277
713.447400 0.050863
713.680300 0.044719
713.913200 0.065680
714.146200 0.078156
714.379100 0.035202
714.612100 0.082767
714.845100 0.079299
715.078100 0.081655
715.311100 0.036172
715.544100 0.094320
715.777100 0.055682
716.010200 0.067184
716.243200 0.069656
716.476200 0.100748
716.709300 0.068360
716.942400 0.060910
717.175400 0.066430
717.408500 0.082088
717.641600 0.085254
717.874700 0.077794
718.107800 0.107866
718.341000 0.058711
718.574100 0.055063
718.807200 0.089176
719.040400 0.104255
719.273600 0.090849
719.506700 0.091203
719.739900 0.083135
719.973100 0.074840
720.206300 0.063336
720.439500 0.093101
720.672700 0.100221
720.906000 0.082633
721.139200 0.081142
721.372500 0.056084
721.605700 0.063973
721.839000 0.063417
722.072300 0.043362
722.305500 0.071179
722.538800 0.051582
722.772100 0.057004
723.005500 0.049364
723.238800 0.108148
723.472100 0.046845
723.705500 0.066747
723.938800 0.086859
724.172200 0.041140
724.405600 0.051744
724.638900 0.113213
724.872300 0.083671
725.105700 0.077814
725.339100 0.071980
725.572600 0.092667
725.806000 0.089896
726.039400 0.062423
726.272900 0.059639
726.506300 0.060384
726.739800 0.090884
726.973300 0.064365
727.206800 0.067970
727.440300 0.092186
727.673800 0.053123
727.907300 0.091274
728.140800 0.035477
728.374300 0.072391
728.607900 0.050461
728.841400 0.075857
729.075000 0.080625
729.308600 0.065597
729.542100 0.071297
729.775700 0.065927
730.009300 0.053421
730.242900 0.079878
730.476600 0.106028
730.710200 0.069519
730.943800 0.087207
731.177500 0.115255
731.411100 0.070098
731.644800 0.097185
731.878500 0.077263
732.112200 0.050959
732.345800 0.074013
732.579500 0.132074
732.813300 0.090577
733.047000 0.081964
733.280700 0.118550
733.514500 0.059028
733.748200 0.087350
733.982000 0.083987
734.215700 0.057647
734.449500 0.089673
734.683300 0.087757
734.917100 0.088101
735.150900 0.082967
735.384700 0.081597
735.618500 0.083636
735.852400 0.098736
736.086200 0.070380
736.320100 0.086801
736.553900 0.109478
736.787800 0.067046
737.021700 0.083220
737.255600 0.078384
737.489500 0.041748
737.723400 0.052025
737.957300 0.047613
738.191200 0.061841
738.425200 0.082592
738.659100 0.082123
738.893100 0.028275
739.127100 0.088231
739.361000 0.075055
739.595000 0.075837
739.829000 0.064688
740.063000 0.034717
740.297000 0.067200
740.531000 0.078590
740.765100 0.071650
740.999100 0.090789
741.233200 0.075949
741.467200 0.087908
741.701300 0.053228
741.935400 0.076178
742.169500 0.053334
742.403600 0.084850
742.637700 0.068960
742.871800 0.027852
743.105900 0.056162
743.340000 0.051819
743.574200 0.082814
743.808300 0.092789
744.042500 0.061489
744.276700 0.085863
744.510800 0.052134
744.745000 0.074128
744.979200 0.105377
745.213400 0.079361
745.447700 0.082167
745.681900 0.055439
745.916100 0.108707
746.150400 0.090374
746.384600 0.073174
746.618900 0.065308
746.853200 0.088475
747.087400 0.064100
747.321700 0.066378
747.556000 0.077142
747.790300 0.069870
748.024700 0.048502
748.259000 0.072544
748.493300 0.107735
748.727700 0.077291
748.962000 0.085941
749.196400 0.056324
749.430800 0.089466
749.665200 0.045580
749.899500 0.064940
750.133900 0.067937
750.368400 0.070273
750.602800 0.064170
750.837200 0.074177
751.071700 0.081308
751.306100 0.072200
751.540600 0.079121
751.775000 0.103995
752.009500 0.079434
752.244000 0.081670
752.478500 0.061451
752.713000 0.068186
752.947500 0.079643
753.182000 0.093114
753.416600 0.092082
753.651100 0.071555
753.885600 0.090731
754.120200 0.104674
754.354800 0.091558
754.589400 0.102935
754.823900 0.072619
755.058500 0.072493
755.293100 0.086018
755.527800 0.060382
755.762400 0.083157
755.997000 0.109257
756.231700 0.072519
756.466300 0.082193
756.701000 0.073026
756.935600 0.079289
757.170300 0.076534
757.405000 0.096623
757.639700 0.086890
757.874400 0.083656
758.109100 0.082616
758.343800 0.086648
758.578600 0.090814
758.813300 0.076427
759.048100 0.078774
759.282800 0.070658
759.517600 0.084566
759.752400 0.090094
759.987200 0.081718
760.222000 0.086282
760.456800 0.075726
760.691600 0.069800
760.926400 0.062017
761.161300 0.079335
761.396100 0.088015
761.631000 0.084616
761.865800 0.102522
762.100700 0.080092
762.335600 0.068650
762.570500 0.073996
762.805400 0.061204
763.040300 0.073782
763.275200 0.070901
763.510100 0.089179
763.745000 0.076672
763.980000 0.099625
764.214900 0.062078
764.449900 0.092097
764.684900 0.059376
764.919800 0.082608
765.154800 0.088563
765.389800 0.081782
765.624800 0.084106
765.859900 0.053335
766.094900 0.076516
766.329900 0.084857
766.565000 0.064737
766.800000 0.058075
767.035100 0.044423
767.270100 0.086934
767.505200 0.071795
767.740300 0.069611
767.975400 0.070405
768.210500 0.089206
768.445600 0.059921
768.680800 0.085130
768.915900 0.107724
769.151000 0.077217
769.386200 0.060948
769.621400 0.076112
769.856500 0.090596
770.091700 0.073170
770.326900 0.063451
770.562100 0.093050
770.797300 0.056000
771.032500 0.072430
771.267700 0.064411
771.503000 0.066521
771.738200 0.096083
771.973500 0.064327
772.208700 0.068274
772.444000 0.106278
772.679300 0.054137
772.914600 0.050964
773.149900 0.065912
773.385200 0.043925
773.620500 0.082341
773.855800 0.081824
774.091100 0.045788
774.326500 0.096953
774.561800 0.082902
774.797200 0.078347
775.032600 0.104209
775.267900 0.061368
775.503300 0.043608
775.738700 0.082483
775.974100 0.075492
776.209500 0.078094
776.445000 0.084903
776.680400 0.096455
776.915800 0.086141
777.151300 0.029111
777.386800 0.063579
777.622200 0.068863
777.857700 0.083970
778.093200 0.116122
778.328700 0.055934
778.564200 0.086845
778.799700 0.110268
779.035200 0.051622
779.270700 0.068574
779.506300 0.063281
779.741800 0.057185
779.977400 0.062627
780.213000 0.061136
780.448500 0.030907
780.684100 0.082766
780.919700 0.080337
781.155300 0.089173
781.390900 0.118891
781.626500 0.063091
781.862200 0.101709
782.097800 0.071152
782.333500 0.042445
782.569100 0.045480
782.804800 0.056999
783.040500 0.045919
783.276100 0.046583
783.511800 0.075630
783.747500 0.088281
783.983200 0.075699
784.219000 0.072555
784.454700 0.066597
784.690400 0.083083
784.926200 0.070903
785.161900 0.041851
785.397700 0.084168
785.633500 0.039026
785.869200 0.082371
786.105000 0.071564
786.340800 0.087443
786.576600 0.070803
786.812400 0.074659
787.048300 0.089630
787.284100 0.098861
787.519900 0.057750
787.755800 0.092519
787.991700 0.088795
788.227500 0.068529
788.463400 0.085933
788.699300 0.058615
788.935200 0.084358
789.171100 0.091140
789.407000 0.105537
789.642900 0.079350
789.878900 0.084838
790.114800 0.052444
790.350700 0.084667
790.586700 0.086493
790.822700 0.085952
791.058600 0.091960
791.294600 0.077001
791.530600 0.034504
791.766600 0.075690
792.002600 0.114331
792.238700 0.071026
792.474700 0.064436
792.710700 0.079189
792.946800 0.032113
793.182800 0.039001
793.418900 0.089434
793.655000 0.065869
793.891000 0.099604
794.127100 0.088378
794.363200 0.090947
794.599300 0.056298
794.835500 0.109927
795.071600 0.081306
795.307700 0.081536
795.543900 0.071663
795.780000 0.073684
796.016200 0.079389
796.252300 0.082690
796.488500 0.066886
796.724700 0.096008
796.960900 0.063385
797.197100 0.068714
797.433300 0.061499
797.669500 0.098610
797.905800 0.079128
798.142000 0.091301
798.378300 0.067862
798.614500 0.047015
798.850800 0.085433
799.087100 0.052540
799.323300 0.054092
799.559600 0.049501
799.795900 0.093951
800.032200 0.085243
800.268600 0.037466
800.504900 0.109184
800.741200 0.023753
800.977600 0.088527
801.213900 0.046080
801.450300 0.107667
801.686700 0.099421
801.923000 0.061142
802.159400 0.099967
802.395800 0.092003
802.632200 0.079856
802.868600 0.045352
803.105100 0.056786
803.341500 0.058165
803.577900 0.117988
803.814400 0.044222
804.050800 0.084786
804.287300 0.121551
804.523800 0.069041
804.760300 0.027895
804.996800 0.086926
805.233300 0.106024
805.469800 0.073524
805.706300 0.043672
805.942800 0.046723
806.179400 0.061870
806.415900 0.040052
806.652500 0.052116
806.889000 0.119433
807.125600 0.088070
807.362200 0.061395
807.598800 0.071444
807.835400 0.050946
808.072000 0.088143
808.308600 0.085898
808.545200 0.049577
808.781800 0.058770
809.018500 0.135239
809.255100 0.042142
809.491800 0.030242
809.728400 0.056903
809.965100 0.103994
810.201800 0.030292
810.438500 0.023732
810.675200 0.078384
810.911900 0.095010
811.148600 0.157062
811.385300 0.135487
811.622100 0.087969
811.858800 0.030797
812.095600 0.080595
812.332300 0.092162
812.569100 0.117405
812.805900 0.046213
813.042700 0.050557
813.279500 0.018955
813.516300 -0.004511
813.753100 0.102277
813.989900 0.063412
814.226700 0.066387
814.463600 0.039485
814.700400 0.068784
814.937300 0.071188
815.174200 0.069883
815.411000 0.052309
815.647900 0.007753
815.884800 0.070952
816.121700 0.102238
816.358600 0.039720
816.595500 0.138101
816.832400 0.045400
817.069400 0.050345
817.306300 0.077825
817.543300 0.081573
817.780200 0.005150
818.017200 0.094223
818.254200 0.059677
818.491200 0.039540
818.728200 0.037960
818.965200 0.077201
819.202200 0.036814
819.439200 0.101751
819.676200 0.030615
819.913300 0.090111
820.150300 0.000705
820.387400 0.096587
820.624400 0.093112
820.861500 0.055280
821.098600 0.114361
821.335700 0.178155
821.572700 0.060679
821.809900 0.002813
822.047000 0.128041
822.284100 0.022326
822.521200 0.120683
822.758400 0.141219
822.995500 0.049640
823.232700 0.083336
823.469800 0.113520
823.707000 0.013002
823.944200 0.093789
824.181400 0.082613
824.418600 0.113584
824.655800 0.047248
824.893000 0.038005
825.130200 0.083672
825.367500 0.037086
825.604700 0.010380
825.841900 0.074329
826.079200 0.131370
826.316500 0.091211
826.553700 0.080315
826.791000 0.087593
827.028300 0.131208
827.265600 0.074783
827.502900 0.049811
827.740200 0.037353
827.977600 0.057690
828.214900 0.127744
828.452200 0.057621
828.689600 0.107168
828.927000 0.006310
829.164300 0.059704
829.401700 0.074640
829.639100 0.105557
829.876500 0.097016
830.113900 0.123859
830.351300 0.122505
830.588700 0.089764
830.826100 0.013891
831.063600 0.007802
831.301000 0.091236
831.538500 0.049016
831.775900 0.071107
832.013400 0.097305
832.250900 0.034102
832.488400 0.153304
832.725900 0.004276
832.963400 0.085023
833.200900 0.039173
833.438400 0.044154
833.675900 0.101448
833.913500 0.225562
834.151000 0.082530
834.388600 0.014014
834.626100 0.066552
834.863700 0.066978
835.101300 0.043367
835.338900 0.049837
835.576500 0.089728
835.814100 0.027786
836.051700 0.063592
836.289300 0.159433
836.526900 0.044065
836.764600 0.130863
837.002200 0.084237
837.239900 0.068615
837.477500 0.011283
837.715200 -0.032937
837.952900 -0.021492
838.190600 0.094319
838.428300 0.111902
838.666000 0.030642
838.903700 0.074894
839.141400 0.079977
839.379100 0.017393
839.616900 -0.063747
839.854600 0.050389
840.092400 0.096741
840.330200 0.040825
840.567900 0.057309
840.805700 0.095836
841.043500 0.105510
841.281300 0.057445
841.519100 0.001068
841.756900 0.038176
841.994700 0.006482
842.232600 0.074413
842.470400 0.120755
842.708200 -0.145185
842.946100 -0.107662
843.184000 0.034762
843.421800 0.102757
843.659700 0.118920
843.897600 0.232943
844.135500 0.139543
844.373400 0.136329
844.611300 0.196034
844.849200 0.037238
845.087200 0.051644
845.325100 -0.019574
845.563100 0.030865
845.801000 0.126206
846.039000 0.083749
846.277000 0.001455
846.514900 0.134879
846.752900 -0.126586
846.990900 -0.044391
847.228900 -0.124779
847.466900 0.104803
847.705000 0.028577
847.943000 -0.012599
848.181000 0.023186
848.419100 -0.078973
848.657100 0.027193
848.895200 -0.038799
849.133300 0.106953
849.371300 0.091954
849.609400 0.015128
849.847500 0.090309
850.085600 -0.048773
850.323700 0.199061
850.561900 -0.018131
850.800000 0.151075
851.038100 -0.000354
851.276300 -0.081552
851.514400 -0.022805
851.752600 0.123298
851.990800 0.137629
852.228900 0.002781
852.467100 0.056136
852.705300 0.043898
852.943500 0.164388
853.181700 0.093209
853.420000 0.030627
853.658200 0.023176
853.896400 0.072233
854.134700 0.092453
854.372900 0.073311
854.611200 0.098697
854.849500 0.131018
855.087700 0.037858
855.326000 0.100604
855.564300 0.117259
855.802600 0.136801
856.040900 0.098044
856.279200 0.100489
856.517600 0.094052
856.755900 0.040759
856.994200 -0.017292
857.232600 0.087529
857.471000 0.028893
857.709300 0.110351
857.947700 0.054268
858.186100 0.082110
858.424500 0.026276
858.662900 0.063010
858.901300 0.136895
859.139700 0.090031
859.378100 0.019362
859.616600 0.117846
859.855000 0.008461
860.093500 0.047236
860.331900 0.028619
860.570400 0.100610
860.808900 0.158576
861.047300 0.115926
861.285800 0.118740
861.524300 0.075887
861.762800 0.059610
862.001300 0.093249
862.239900 0.099947
862.478400 0.057513
862.716900 -0.014061
862.955500 0.070029
863.194000 -0.042752
863.432600 0.092121
863.671200 0.150149
863.909800 0.044913
864.148300 0.027681
864.386900 -0.048491
864.625500 0.063669
864.864200 -0.044206
865.102800 0.054512
865.341400 0.037092
865.580000 0.040077
865.818700 0.016009
866.057300 -0.017310
866.296000 0.084362
866.534700 0.254351
866.773300 0.138182
867.012000 0.092862
867.250700 0.027886
867.489400 -0.035907
867.728100 -0.075027
867.966900 0.050248
868.205600 0.024976
868.444300 0.100701
868.683100 -0.052509
868.921800 0.142426
869.160600 -0.059865
869.399300 0.129966
869.638100 -0.053031
869.876900 0.145486
870.115700 0.042404
870.354500 0.055011
870.593300 -0.094092
870.832100 0.134138
871.070900 0.032569
871.309700 0.124061
871.548600 0.153568
871.787400 -0.079553
872.026300 -0.023298
872.265100 -0.021515
872.504000 0.049250
872.742900 -0.025019
872.981800 0.023580
873.220700 0.085343
873.459600 0.143638
873.698500 0.073558
873.937400 0.194798
874.176300 0.017978
874.415300 0.096929
874.654200 0.031238
874.893200 -0.009918
875.132100 -0.023788
875.371100 0.119069
875.610100 -0.007372
875.849100 0.044513
876.088000 0.058731
876.327000 0.174157
876.566100 0.061420
876.805100 0.012281
877.044100 0.033817
877.283100 0.013060
877.522200 -0.072465
877.761200 0.006408
878.000300 0.065418
878.239300 0.131113
878.478400 0.091513
878.717500 0.093205
878.956600 0.072414
879.195700 0.105559
879.434800 0.073368
879.673900 0.149103
879.913000 0.107928
880.152100 0.094454
880.391300 0.138478
880.630400 -0.005060
880.869600 0.132590
881.108700 0.061867
881.347900 0.066331
881.587100 0.074090
881.826200 0.086530
882.065400 0.099050
882.304600 -0.022108
882.543800 0.075967
882.783100 -0.010804
883.022300 0.011965
883.261500 -0.011565
883.500700 0.061367
883.740000 -0.053099
883.979200 0.025279
884.218500 0.002009
884.457800 -0.044505
884.697100 -0.029193
884.936300 -0.010581
885.175600 0.088629
885.414900 0.117894
885.654200 0.089205
885.893600 0.044950
886.132900 0.070047
886.372200 0.035684
886.611600 -0.034228
886.850900 0.144171
887.090300 0.050896
887.329600 -0.006646
887.569000 0.106138
887.808400 0.041678
888.047800 -0.048630
888.287200 0.083587
888.526600 0.016979
888.766000 -0.069010
889.005400 0.130107
889.244800 -0.003432
889.484300 -0.059134
889.723700 0.126769
889.963200 0.095985
890.202600 0.125339
890.442100 -0.090675
890.681600 0.083128
890.921100 0.148437
891.160600 0.033042
891.400100 -0.047055
891.639600 0.024957
891.879100 0.102451
892.118600 0.001175
892.358100 0.008453
892.597700 0.022043
892.837200 0.135325
893.076800 0.054384
893.316300 0.085874
893.555900 0.112864
893.795500 0.033046
894.035100 -0.057617
894.274700 -0.022198
894.514300 0.020643
894.753900 -0.123185
894.993500 0.134524
895.233100 -0.009445
895.472700 0.057545
895.712400 0.170262
895.952000 -0.101044
896.191700 -0.026196
896.431400 0.073690
896.671000 0.169544
896.910700 0.120080
897.150400 0.075891
897.390100 0.109377
897.629800 -0.054466
897.869500 -0.032171
898.109200 0.129541
898.348900 -0.102039
898.588700 0.027174
898.828400 0.128950
899.068200 -0.035051
899.307900 0.206467
899.547700 0.087373
899.787500 0.198660
900.027200 -0.163184
900.267000 0.120928
900.506800 -0.070452
900.746600 0.123182
900.986400 0.034770
901.226300 -0.005066
901.466100 0.017685
901.705900 0.225463
901.945800 -0.033321
902.185600 0.096490
902.425500 -0.063900
902.665400 -0.127073
902.905200 0.077320
903.145100 -0.048107
903.385000 0.048786
903.624900 0.087314
903.864800 0.070903
904.104700 -0.017442
904.344600 -0.006498
904.584600 0.010584
904.824500 0.007936
905.064400 -0.005481
905.304400 0.123800
905.544400 0.014262
905.784300 0.263241
906.024300 0.042501
906.264300 0.033688
906.504300 0.112081
906.744300 0.161300
906.984300 0.024298
907.224300 -0.027644
907.464300 0.168140
907.704300 -0.014898
907.944400 0.025567
908.184400 -0.045604
908.424500 0.082275
908.664500 -0.101000
908.904600 -0.020738
909.144700 0.365967
909.384700 -0.019546
909.624800 0.131270
909.864900 0.041435
910.105000 0.240918
910.345200 -0.001232
910.585300 -0.089186
910.825400 -0.010180
911.065500 0.044907
911.305700 0.095945
911.545800 -0.008783
911.786000 0.050361
912.026200 0.159480
912.266300 0.126230
912.506500 0.046447
912.746700 -0.053045
912.986900 -0.043354
913.227100 0.014308
913.467300 0.175389
913.707500 -0.189394
913.947800 0.074728
914.188000 0.038958
914.428300 0.003640
914.668500 0.170826
914.908800 -0.168477
915.149000 -0.089195
915.389300 0.263075
915.629600 0.155499
915.869900 0.156592
916.110200 0.038730
916.350500 0.068467
916.590800 -0.165995
916.831100 0.040353
917.071400 -0.016118
917.311800 0.077252
917.552100 0.018621
917.792500 -0.102240
918.032800 0.032381
918.273200 0.219758
918.513600 -0.026303
918.753900 0.063725
918.994300 0.167971
919.234700 0.171586
919.475100 0.568263
919.715500 0.222559
919.956000 0.059362
920.196400 -0.008006
920.436800 0.027422
920.677300 0.286129
920.917700 0.002822
921.158200 0.118143
921.398600 -0.031607
921.639100 0.295087
921.879600 -0.324085
922.120100 0.106510
922.360600 0.009951
922.601100 0.029883
922.841600 0.014754
923.082100 -0.007954
923.322600 -0.139481
923.563100 -0.072884
923.803700 0.110976
924.044200 0.064158
924.284800 0.189479
924.525400 -0.071974
924.765900 0.144445
925.006500 0.082062
925.247100 -0.019416
925.487700 0.134741
925.728300 0.218650
925.968900 -0.090268
926.209500 -0.216570
926.450100 -0.065814
926.690800 0.086631
926.931400 0.164063
927.172000 0.046904
927.412700 -0.112373
927.653300 -0.123478
927.894000 -0.009899
928.134700 0.136108
928.375400 0.017986
928.616100 0.032382
928.856800 -0.034441
929.097500 0.174719
929.338200 0.130719
929.578900 0.019433
929.819600 0.148342
930.060400 0.015906
930.301100 0.018452
930.541900 -0.015619
930.782600 -0.180372
931.023400 0.250483
931.264200 0.134816
931.504900 0.164363
931.745700 0.190307
931.986500 -0.066392
932.227300 -0.098959
932.468100 0.162984
932.708900 -0.024028
932.949800 0.396266
933.190600 -0.155988
933.431400 0.023708
933.672300 -0.098187
933.913100 0.113136
934.154000 0.200017
934.394900 -0.217125
934.635800 -0.132076
934.876600 0.173017
935.117500 -0.043057
935.358400 0.350938
935.599300 0.356853
935.840300 -0.014069
936.081200 -0.022006
936.322100 -0.154780
936.563000 0.349894
936.804000 -0.230468
937.044900 0.013986
937.285900 -0.194535
937.526900 0.041675
937.767800 0.209465
938.008800 -0.122731
938.249800 0.208380
938.490800 0.060312
938.731800 0.215455
938.972800 0.199418
939.213800 0.423398
939.454900 0.019171
939.695900 -0.270006
939.936900 0.390127
940.178000 -0.138233
940.419000 -0.221209
940.660100 0.239400
940.901200 -0.091241
941.142200 -0.237249
941.383300 0.423826
941.624400 0.001225
941.865500 0.098391
942.106600 -0.227175
942.347700 0.214707
942.588900 0.135250
942.830000 0.028525
943.071100 -0.337974
943.312300 -0.006454
943.553400 0.084257
943.794600 0.079136
944.035700 0.014584
944.276900 0.060395
944.518100 0.096156
944.759300 0.041587
945.000500 -0.405881
945.241700 0.305156
945.482900 -0.201009
945.724100 0.127137
945.965300 -0.277867
946.206600 0.278754
946.447800 -0.261361
946.689100 0.025336
946.930300 -0.815639
947.171600 -0.154584
947.412800 0.638680
947.654100 -0.209468
947.895400 0.154935
948.136700 -0.280803
948.378000 -0.385926
948.619300 0.100462
948.860600 1.086313
949.101900 -0.230741
949.343300 0.050904
949.584600 0.234397
949.825900 -0.219866
950.067300 0.382981
950.308600 -0.194077
950.550000 0.322293
950.791400 -0.063669
951.032700 -0.545231
951.274100 -0.341334
951.515500 -0.051562
951.756900 -0.054991
951.998300 -0.070951
952.239800 0.126478
952.481200 -0.129776
952.722600 -0.509972
952.964000 -0.111222
953.205500 -0.080600
953.446900 -0.082629
953.688400 -0.290440
953.929900 -0.041722
954.171300 -1.660833
954.412800 -0.080067
954.654300 0.990814
954.895800 -0.231192
955.137300 -0.438876
955.378800 0.062329
955.620300 -0.184461
955.861800 0.044270
956.103400 0.833368
956.344900 0.542954
956.586500 1.149289
956.828000 -0.089835
957.069600 -0.121295
957.311100 0.147062
957.552700 3.389875
957.794300 0.016617
958.035900 -0.042418
958.277500 -0.161390
958.519100 0.037316
958.760700 -0.016989
959.002300 -0.417148
959.243900 -0.174536
959.485600 -0.281475
959.727200 -0.382004
959.968800 0.193460
960.210500 -0.227420
960.452200 -0.297253
960.693800 0.087848
960.935500 0.000000
961.177200 0.096346
961.418900 -0.450249
961.660600 0.172172
961.902300 0.591442
962.144000 -0.543936
962.385700 -0.566435
962.627400 -0.090468
962.869200 -0.497626
963.110900 0.121367
963.352700 2.840106
963.594400 -0.038933
963.836200 2.999565
964.077900 -0.138865
964.319700 3.145818
964.561500 -0.128623
964.803300 3.139249
965.045100 -0.013081
965.286900 -0.346296
965.528700 1.577492
965.770500 -0.512890
966.012300 -0.557879
966.254200 -0.311771
966.496000 -0.253279
966.737900 0.403369
966.979700 -0.215099
967.221600 -0.115117
967.463400 0.319086
967.705300 0.014302
967.947200 -0.164747
968.189100 -0.728254
968.431000 0.409507
968.672900 -0.265803
968.914800 -0.197692
969.156700 -0.443291
969.398700 -0.176825
969.640600 2.245513
969.882500 -0.059852
970.124500 -0.363332
970.366400 -0.102027
970.608400 -0.151268
970.850400 -0.453640
971.092300 0.007896
971.334300 -0.167118
971.576300 1.996731
971.818300 -0.076205
972.060300 0.056064
972.302300 0.164491
972.544300 0.095740
972.786400 0.590215
973.028400 3.206826
973.270400 -0.218056
973.512500 -0.028163
973.754500 0.144658
973.996600 2.994757
974.238700 0.503819
974.480700 -0.256891
974.722800 -0.097845
974.964900 -0.128374
975.207000 -0.192018
975.449100 -0.750034
975.691200 0.152569
975.933300 -0.242516
976.175500 -2.371068
976.417600 0.001547
976.659700 3.082785
976.901900 -0.172634
977.144000 0.041504
977.386200 -0.386223
977.628300 0.435781
977.870500 0.014745
978.112700 -0.556545
978.354900 0.147585
978.597100 0.026989
978.839300 0.623627
979.081500 0.176758
979.323700 -3.131298
979.565900 -0.180776
979.808200 1.602532
980.050400 -0.033013
980.292600 -0.122698
980.534900 -0.090624
980.777100 2.971276
981.019400 -0.441420
981.261700 0.397667
981.504000 0.307496
981.746200 -0.879996
981.988500 -0.002520
982.230800 -0.376914
982.473100 -0.188909
982.715500 0.773965
982.957800 -0.083184
983.200100 0.011702
983.442400 -0.058657
983.684800 2.799341
983.927100 -0.342829
984.169500 -0.273928
984.411800 -0.193668
984.654200 -0.218214
984.896600 -0.156013
985.139000 -1.543338
985.381400 0.346645
985.623800 0.144658
985.866200 0.274083
986.108600 -2.773786
986.351000 -0.086476
986.593400 -0.167911
986.835800 0.204183
987.078300 -0.481612
987.320700 0.166730
987.563200 -0.601844
987.805600 -0.292597
988.048100 0.294893
988.290600 -0.456535
988.533100 -2.707570
988.775600 1.035975
989.018000 0.284048
989.260500 -0.102006
989.503100 -2.583199
989.745600 -0.964639
989.988100 -3.057666
990.230600 3.097604
990.473200 2.935507
990.715700 -0.006667
990.958200 -0.614240
991.200800 0.301030
991.443400 -2.817565
991.685900 -0.592430
991.928500 -3.163758
992.171100 2.158362
992.413700 -0.185736
992.656300 0.304335
992.898900 -0.061596
993.141500 0.062678
993.384100 0.014709
993.626700 -0.030732
993.869400 1.362482
994.112000 -0.453175
994.354700 -0.004724
994.597300 0.185718
994.840000 0.000000
995.082600 -0.683751
995.325300 -0.861785
995.568000 0.040318
995.810700 2.127105
996.053400 0.630759
996.296100 2.827369
996.538800 0.354549
996.781500 -0.028888
997.024200 -1.145019
997.267000 -0.265975
997.509700 -0.092308
997.752400 -0.190403
997.995200 0.641219
998.237900 2.099508
998.480700 0.221104
998.723500 -3.216957
998.966200 -0.085224
999.209000 0.000000
999.451800 -0.120613
999.694600 -0.202171
999.937400 2.318063
1000.180200 -0.269131
1000.423000 0.596253
1000.665900 -0.341250
1000.908700 -0.552702
1001.151500 -0.423522
1001.394400 -0.112258
1001.637200 0.161477
1001.880100 -1.910269
1002.123000 -0.291192
1002.365800 -0.465697
1002.608700 -0.051998
1002.851600 0.243967
1003.094500 -0.058214
1003.337400 -0.676832
1003.580300 -3.274158
1003.823200 -0.673517
1004.066100 0.063436
1004.309100 0.483803
1004.552000 0.301030
1004.794900 0.159153
1005.037900 0.480033
1005.280800 -0.597627
1005.523800 0.577173
1005.766700 -0.047326
1006.009700 0.305336
1006.252700 -2.741939
1006.495700 -0.044419
1006.738700 0.000000
1006.981700 0.230290
1007.224700 -0.263768
1007.467700 -1.324646
1007.710700 -0.327860
1007.953800 3.146128
1008.196800 2.736397
1008.439800 3.195346
1008.682900 -0.256937
1008.925900 0.009114
1009.169000 -0.321517
1009.412100 -3.151063
1009.655100 2.008600
1009.898200 -0.346618
1010.141300 0.253992
1010.384400 -0.169577
1010.627500 -0.437884
1010.870600 0.084257
1011.113700 1.048933
1011.356800 0.344530
1011.600000 -1.647734
1011.843100 -0.278907
1012.086300 -2.628389
1012.329400 -0.196050
1012.572600 -2.758155
1012.815700 -0.281676
1013.058900 0.000000
1013.302100 0.966465
1013.545200 -0.177041
1013.788400 0.066834
1014.031600 0.000000
1014.274800 -0.056116
1014.518000 0.317489
1014.761300 0.419382
1015.004500 -3.096215
1015.247700 0.198577
1015.490900 -2.916980
1015.734200 1.577042
1015.977400 0.164692
1016.220700 -2.857332
1016.464000 -0.125547
1016.707200 -0.940966
1016.950500 -0.395389
1017.193800 0.794005
1017.437100 -0.087042
1017.680400 -0.268880
1017.923700 -0.039888
1018.167000 0.442849
1018.410300 -0.354370
1018.653600 -0.274552
1018.896900 0.023780
1019.140300 -0.011198
1019.383600 2.662758
1019.627000 0.475180
1019.870300 -0.391950
1020.113700 -0.090603
1020.357100 -0.074147
1020.600400 -0.211882
1020.843800 0.461869
1021.087200 0.008148
1021.330600 -2.606381
1021.574000 0.226299
1021.817400 0.000000
1022.060800 -2.628389
1022.304200 -2.741939
1022.547700 2.902003
1022.791100 -0.761267
1023.034500 -0.184910
