# Wavelength	Absorbance
197.780200 2.878522
197.984200 0.007581
198.188200 3.093772
198.392200 2.682145
198.596300 2.935507
198.800300 2.318063
199.004400 -0.035688
199.208500 2.866287
199.412600 2.776701
199.616800 -0.196093
199.820900 -0.214045
200.025100 2.877947
200.229200 2.463893
200.433400 3.008600
200.637600 2.745075
200.841800 2.902003
201.046100 0.348684
201.250300 3.142702
201.454600 3.220892
201.658900 3.051153
201.863100 -0.007841
202.067400 2.760422
202.271800 3.093772
202.476100 -0.157704
202.680500 -0.024500
202.884800 0.115947
203.089200 3.034628
203.293600 0.354140
203.498000 2.913284
203.702400 -0.281588
203.906900 0.414973
204.111300 -2.309630
204.315800 0.068438
204.520300 3.062958
204.724800 2.587711
204.929300 2.396199
205.133800 0.129041
205.338400 2.820201
205.543000 3.171434
205.747500 2.682145
205.952100 2.791691
206.156700 3.034628
206.361400 -3.173478
206.566000 -0.271872
206.770600 0.371628
206.975300 2.294466
207.180000 -2.276462
207.384700 2.587711
207.589400 -2.824776
207.794100 2.480007
207.998900 2.622214
208.203600 3.152288
208.408400 2.970812
208.613200 2.820201
208.818000 2.495544
209.022800 2.414973
209.227600 2.820201
209.432500 2.907949
209.637300 2.752816
209.842200 2.294466
210.047100 1.050463
210.252000 -0.811433
210.456900 3.086360
210.661800 0.564017
210.866800 3.104828
211.071800 0.486439
211.276700 2.907949
211.481700 2.736397
211.686700 2.632457
211.891800 2.480007
212.096800 3.336260
212.301800 2.890421
212.506900 3.209783
212.712000 -0.018405
212.917100 3.226342
213.122200 -0.136311
213.327300 0.035067
213.532500 -2.824776
213.737600 2.985426
213.942800 1.447158
214.148000 -0.134969
214.353200 -1.544068
214.558400 0.276741
214.763600 3.265290
214.968900 2.896526
215.174100 3.104487
215.379400 0.000000
215.584700 2.846955
215.790000 0.028166
215.995300 0.557750
216.200700 -0.058331
216.406000 0.185165
216.611400 2.587711
216.816800 2.833784
217.022200 2.621176
217.227600 3.086360
217.433000 2.536558
217.638400 3.047275
217.843900 0.438253
218.049400 0.000000
218.254800 3.275081
218.460300 3.008600
218.665900 0.977159
218.871400 3.234517
219.076900 0.841120
219.282500 2.960946
219.488100 0.475566
219.693600 2.783904
219.899200 0.841130
220.104900 3.055378
220.310500 2.158362
220.516100 0.000000
220.721800 0.254108
220.927500 3.071145
221.133200 -0.233130
221.338900 0.355460
221.544600 2.846955
221.750300 3.183555
221.956100 0.697896
222.161800 2.338456
222.367600 0.834103
222.573400 0.652227
222.779200 -2.876795
222.985000 -2.900367
223.190900 0.377964
223.396700 2.621176
223.602600 -0.149298
223.808500 0.657215
224.014400 -0.403500
224.220300 2.935507
224.426200 0.456880
224.632200 1.183473
224.838100 2.890421
225.044100 0.133385
225.250100 2.550228
225.456100 2.653213
225.662100 -0.101542
225.868100 -0.135346
226.074200 -0.267910
226.280200 0.000000
226.486300 0.096447
226.692400 -2.824776
226.898500 3.101403
227.104600 -0.570045
227.310700 -0.002343
227.516900 2.833784
227.723000 2.089905
227.929200 0.681144
228.135400 3.074816
228.341600 2.622214
228.547800 3.108227
228.754100 0.612956
228.960300 2.245513
229.166600 -2.546543
229.372900 -0.162089
229.579100 2.683047
229.785500 0.300329
229.991800 0.845098
230.198100 2.682145
230.404500 1.963788
230.610800 -0.263281
230.817200 0.000000
231.023600 2.890421
231.230000 -0.083366
231.436400 0.692896
231.642900 2.718502
231.849300 2.791691
232.055800 2.008600
232.262300 3.280123
232.468800 -1.110996
232.675300 2.701568
232.881800 0.450664
233.088400 1.598947
233.294900 2.550228
233.501500 0.592373
233.708100 0.000000
233.914700 2.710963
234.121300 0.000000
234.327900 0.204992
234.534600 2.682145
234.741300 3.097604
234.947900 2.736397
235.154600 0.494509
235.361300 3.122544
235.568000 3.022016
235.774800 -0.451519
235.981500 -0.204120
236.188300 0.000000
236.395100 2.999565
236.601800 0.000000
236.808700 2.960946
237.015500 2.961421
237.222300 -0.208508
237.429200 3.265290
237.636000 1.294781
237.842900 -0.575253
238.049800 2.918555
238.256700 -0.080787
238.463600 3.063333
238.670600 2.970812
238.877500 3.161967
239.084500 -3.011570
239.291500 3.226342
239.498500 2.245513
239.705500 -0.167452
239.912500 1.845098
240.119500 -1.174315
240.326600 2.190332
240.533700 -3.154728
240.740700 2.621176
240.947800 2.990339
241.154900 0.849670
241.362100 3.108227
241.569200 -0.178447
241.776400 2.999131
241.983500 2.783904
242.190700 0.306459
242.397900 0.000000
242.605100 2.537819
242.812400 -0.474495
243.019600 3.242293
243.226900 -0.431646
243.434100 2.913284
243.641400 1.590268
243.848700 -0.079883
244.056000 -2.864511
244.263400 0.503993
244.470700 3.082785
244.678100 3.082426
244.885400 0.080958
245.092800 -0.229545
245.300200 2.357935
245.507600 0.194875
245.715100 3.034628
245.922500 0.244369
246.130000 -0.517739
246.337500 3.183555
246.544900 2.396199
246.752400 3.362859
246.960000 3.165244
247.167500 3.215373
247.375000 0.000000
247.582600 0.534354
247.790200 1.845098
247.997800 1.481647
248.205400 3.262925
248.413000 -0.288330
248.620600 2.727541
248.828300 3.270213
249.035900 3.030600
249.243600 0.414344
249.451300 1.534207
249.659000 0.138338
249.866700 0.648375
250.074500 3.226342
250.282200 3.189490
250.490000 3.021603
250.697800 0.387563
250.905600 0.020614
251.113400 2.929930
251.321200 2.736397
251.529000 -0.741908
251.736900 0.063259
251.944700 1.037455
252.152600 0.743046
252.360500 2.710117
252.568400 -0.311754
252.776300 -0.061452
252.984300 0.105429
253.192200 2.985426
253.400200 2.935003
253.608200 0.390368
253.816200 0.622479
254.024200 2.872739
254.232200 -0.244943
254.440200 -2.716838
254.648300 2.769377
254.856400 2.701568
255.064400 0.136488
255.272500 3.097604
255.480600 -0.068649
255.688800 -2.698101
255.896900 -0.236977
256.105100 3.284882
256.313200 -0.058088
256.521400 2.827369
256.729600 0.876496
256.937800 3.171434
257.146000 2.902003
257.354300 0.000000
257.562500 3.204120
257.770800 0.000000
257.979100 0.183776
258.187400 2.833784
258.395700 0.138796
258.604000 0.682446
258.812400 2.919078
259.020700 3.026125
259.229100 0.667261
259.437500 2.975891
259.645900 3.198382
259.854300 2.878522
260.062700 0.391482
260.271100 0.129815
260.479600 3.097604
260.688100 2.562293
260.896500 0.573425
261.105000 2.089905
261.313500 -0.255619
261.522100 3.142702
261.730600 0.454599
261.939200 2.701568
262.147700 1.445827
262.356300 2.745075
262.564900 2.536558
262.773500 0.555229
262.982200 0.807447
263.190800 0.000000
263.399500 3.206826
263.608100 3.039017
263.816800 -0.027577
264.025500 2.396199
264.234200 2.158362
264.442900 2.053078
264.651700 3.097604
264.860400 2.662758
265.069200 0.150785
265.278000 0.292238
265.486800 2.975891
265.695600 2.450249
265.904400 0.598669
266.113300 -0.181872
266.322100 0.198822
266.531000 2.294466
266.739900 2.294466
266.948800 3.125806
267.157700 0.675280
267.366600 3.055378
267.575500 2.799341
267.784500 2.550228
267.993500 2.994757
268.202400 0.310895
268.411400 3.021603
268.620500 2.761176
268.829500 0.385039
269.038500 2.123852
269.247600 3.078819
269.456600 2.008600
269.665700 2.965672
269.874800 0.156903
270.083900 3.255273
270.293100 -2.491362
270.502200 3.034628
270.711400 -0.444604
270.920500 0.442849
271.129700 2.985426
271.338900 3.115611
271.548100 2.691965
271.757300 0.205418
271.966600 2.890421
272.175800 3.277609
272.385100 3.132580
272.594400 0.159907
272.803700 3.021603
273.013000 2.799341
273.222300 2.994757
273.431600 3.165244
273.641000 0.398879
273.850400 2.701568
274.059700 2.945961
274.269100 1.130334
274.478500 0.379143
274.688000 3.183555
274.897400 -0.325443
275.106900 1.591065
275.316300 0.203509
275.525800 3.067071
275.735300 0.000000
275.944800 2.965672
276.154300 0.583577
276.363900 3.012837
276.573400 2.840106
276.783000 0.065305
276.992600 2.846955
277.202200 0.387359
277.411800 -0.497580
277.621400 2.727541
277.831000 3.118595
278.040700 0.657709
278.250300 2.820201
278.460000 -0.157213
278.669700 2.980458
278.879400 2.432969
279.089100 2.691965
279.298900 2.929930
279.508600 3.025715
279.718400 3.272770
279.928100 0.000000
280.137900 0.464865
280.347700 2.632457
280.557600 0.194533
280.767400 3.039017
280.977200 -0.148205
281.187100 -3.028978
281.397000 -0.017305
281.606900 0.000000
281.816800 0.198046
282.026700 0.278754
282.236600 0.275087
282.446600 2.924279
282.656500 -2.079181
282.866500 2.791691
283.076500 -0.584269
283.286500 0.077851
283.496500 -0.023630
283.706500 0.516476
283.916600 2.866287
284.126600 0.845098
284.336700 0.022153
284.546800 0.701220
284.756900 3.025715
284.967000 2.896526
285.177100 0.383053
285.387300 0.000000
285.597400 3.017033
285.807600 2.127105
286.017800 1.215064
286.228000 0.000000
286.438200 3.171434
286.648400 0.791297
286.858700 3.265290
287.068900 2.760422
287.279200 0.584504
287.489500 2.414973
287.699800 3.158965
287.910100 2.621176
288.120400 3.047275
288.330800 2.220108
288.541100 0.501084
288.751500 2.217484
288.961900 -0.170496
289.172300 0.000000
289.382700 0.045839
289.593100 2.913284
289.803500 -1.748188
290.014000 2.980458
290.224500 0.419698
290.434900 0.000000
290.645400 2.783904
290.855900 2.653213
291.066500 1.397940
291.277000 2.744293
291.487500 0.173142
291.698100 2.768638
291.908700 -0.664141
292.119300 3.059185
292.329900 3.042969
292.540500 2.728354
292.751100 0.055801
292.961800 0.000000
293.172400 3.171434
293.383100 0.000000
293.593800 2.994757
293.804500 -0.550560
294.015200 0.128588
294.226000 0.000000
294.436700 2.799341
294.647500 2.866287
294.858200 3.074816
295.069000 3.055378
295.279800 2.736397
295.490600 -2.733999
295.701500 0.194674
295.912300 0.384685
296.123200 -0.100577
296.334000 2.719331
296.544900 0.520234
296.755800 3.220892
296.966700 0.985666
297.177700 2.945961
297.388600 2.935003
297.599500 2.269513
297.810500 3.090258
298.021500 0.886768
298.232500 0.153042
298.443500 1.690196
298.654500 0.004059
298.865600 3.125806
299.076600 -0.415212
299.287700 0.000000
299.498800 0.938673
299.709900 2.902003
299.921000 0.172311
300.132100 3.038620
300.343200 0.473872
300.554400 2.769377
300.765500 -0.371870
300.976700 0.000000
301.187900 3.104487
301.399100 2.813581
301.610300 0.395368
301.821500 3.364739
302.032800 3.104487
302.244100 3.017451
302.455300 -0.009606
302.666600 1.917205
302.877900 0.388123
303.089200 2.357935
303.300600 1.323292
303.511900 0.424269
303.723300 2.924279
303.934600 0.118383
304.146000 -2.066592
304.357400 2.432969
304.568800 2.846955
304.780300 3.192289
304.991700 0.358106
305.203100 2.271842
305.414600 3.198382
305.626100 -0.530310
305.837600 3.201124
306.049100 2.775974
306.260600 -0.056057
306.472200 -0.349984
306.683700 2.945961
306.895300 2.575188
307.106900 0.772332
307.318400 3.034628
307.530100 3.165244
307.741700 -0.158551
307.953300 3.332236
308.165000 -2.459392
308.376600 0.483534
308.588300 3.242293
308.800000 3.034227
309.011700 3.215109
309.223400 3.125806
309.435100 2.450249
309.646900 2.840106
309.858600 3.054996
310.070400 1.049864
310.282200 1.447158
310.494000 0.332887
310.705800 3.168203
310.917600 3.047275
311.129500 0.180190
311.341300 0.174886
311.553200 3.180413
311.765100 0.342675
311.977000 3.142702
312.188900 3.122544
312.400800 3.030600
312.612700 3.012837
312.824700 0.720326
313.036600 1.410777
313.248600 3.332034
313.460600 2.999565
313.672600 3.275081
313.884600 3.086360
314.096700 2.599883
314.308700 3.475962
314.520800 3.104828
314.732800 1.093147
314.944900 3.146128
315.157000 0.333882
315.369200 0.623393
315.581300 3.082785
315.793400 2.653213
316.005600 3.226342
316.217700 3.168203
316.429900 1.533948
316.642100 3.168203
316.854300 0.884257
317.066600 3.463445
317.278800 3.417139
317.491100 3.192289
317.703300 0.511483
317.915600 1.086931
318.127900 0.254029
318.340200 3.097604
318.552500 0.311284
318.764900 3.139249
318.977200 1.358411
319.189600 3.030195
319.401900 0.443247
319.614300 3.245019
319.826700 0.280598
320.039200 0.679458
320.251600 1.312186
320.464000 0.266222
320.676500 1.274064
320.889000 2.465383
321.101400 3.348889
321.313900 3.310268
321.526500 1.057407
321.739000 0.737090
321.951500 3.472903
322.164100 1.141354
322.376600 0.537721
322.589200 0.566285
322.801800 3.327767
323.014400 3.360972
323.227000 1.205657
323.439700 0.640859
323.652300 0.899583
323.865000 3.374748
324.077700 0.564672
324.290400 3.310268
324.503100 0.858752
324.715800 3.399154
324.928500 3.425697
325.141200 0.892812
325.354000 1.697275
325.566800 0.565098
325.779600 0.477760
325.992400 0.360467
326.205200 3.542576
326.418000 0.834875
326.630800 1.061667
326.843700 0.573960
327.056600 0.467429
327.269400 1.337792
327.482300 3.531990
327.695200 3.385964
327.908200 0.608028
328.121100 0.305635
328.334000 1.404906
328.547000 3.636688
328.760000 0.706126
328.973000 3.578983
329.186000 0.543950
329.399000 3.445915
329.612000 0.981670
329.825100 2.339025
330.038100 3.534534
330.251200 3.572872
330.464300 1.910110
330.677400 3.635484
330.890500 1.853161
331.103600 3.526469
331.316700 3.641970
331.529900 3.658298
331.743100 0.772974
331.956200 3.661339
332.169400 0.666146
332.382600 1.094365
332.595900 1.591380
332.809100 1.058223
333.022300 3.595606
333.235600 1.885280
333.448900 0.830458
333.662200 3.609381
333.875500 3.666331
334.088800 3.518251
334.302100 3.740521
334.515400 0.511957
334.728800 3.641871
334.942200 3.626956
335.155500 0.813828
335.368900 3.756864
335.582300 3.640879
335.795800 1.286033
336.009200 3.743823
336.222700 1.146409
336.436100 3.725258
336.649600 3.795949
336.863100 1.058005
337.076600 3.787035
337.290100 0.797399
337.503600 1.125555
337.717200 0.756692
337.930700 1.202888
338.144300 1.047038
338.357900 3.656290
338.571500 1.076183
338.785100 3.703205
338.998700 3.739731
339.212400 1.736131
339.426000 1.220783
339.639700 3.667266
339.853300 3.765594
340.067000 0.656097
340.280700 1.686413
340.494500 1.008319
340.708200 1.173834
340.921900 3.796644
341.135700 3.715669
341.349500 3.731266
341.563300 3.781827
341.777100 1.084095
341.990900 0.942425
342.204700 3.816042
342.418500 3.869232
342.632400 0.965949
342.846300 3.839164
343.060100 0.926610
343.274000 1.058624
343.487900 0.971381
343.701900 0.872459
343.915800 3.793022
344.129700 0.919369
344.343700 0.823764
344.557700 0.866468
344.771700 3.809694
344.985700 0.991776
345.199700 1.068071
345.413700 0.906316
345.627700 2.637204
345.841800 3.870521
346.055900 3.854124
346.269900 0.866046
346.484000 3.898615
346.698100 1.305858
346.912300 3.850340
347.126400 1.386184
347.340600 0.662626
347.554700 1.265216
347.768900 3.886321
347.983100 3.942058
348.197300 1.317537
348.411500 2.132683
348.625700 1.187332
348.840000 3.898615
349.054200 3.926085
349.268500 3.952889
349.482800 1.316302
349.697100 3.921634
349.911400 3.877832
350.125700 1.250655
350.340000 3.937869
350.554400 3.966001
350.768700 3.912806
350.983100 3.917820
351.197500 3.889246
351.411900 0.981839
351.626300 1.188505
351.840700 0.877741
352.055200 3.931966
352.269600 3.959471
352.484100 3.950851
352.698600 0.890047
352.913100 3.896857
353.127600 3.993348
353.342100 3.948266
353.556600 0.974352
353.771200 4.007534
353.985800 3.943643
354.200300 3.930898
354.414900 3.981093
354.629500 3.907143
354.844100 2.450205
355.058800 3.971879
355.273400 0.779638
355.488100 3.989138
355.702700 1.209692
355.917400 3.938920
356.132100 4.015527
356.346800 3.982000
356.561500 4.004364
356.776300 3.974327
356.991000 2.459823
357.205800 1.205509
357.420600 1.392706
357.635300 1.265207
357.850100 4.018617
358.065000 1.195360
358.279800 0.800710
358.494600 3.959995
358.709500 4.012879
358.924300 3.975799
359.139200 4.039216
359.354100 2.101711
359.569000 1.107167
359.783900 3.987264
359.998900 1.695013
360.213800 4.019947
360.428800 0.886792
360.643800 3.982497
360.858700 3.960946
361.073700 4.040048
361.288800 1.615631
361.503800 4.026452
361.718800 1.423487
361.933900 4.009323
362.148900 4.016866
362.364000 1.785198
362.579100 4.062845
362.794200 4.002986
363.009300 2.528182
363.224500 1.130839
363.439600 1.504452
363.654800 4.034989
363.869900 1.948983
364.085100 1.629012
364.300300 0.882282
364.515500 4.049102
364.730800 4.062845
364.946000 1.564246
365.161200 1.696143
365.376500 4.086360
365.591800 1.090074
365.807100 4.020403
366.022400 4.056447
366.237700 1.618629
366.453000 4.118562
366.668400 4.089375
366.883700 4.063634
367.099100 1.023392
367.314500 0.900143
367.529900 4.111531
367.745300 4.114678
367.960700 1.391275
368.176100 4.093071
368.391600 4.101850
368.607000 1.072099
368.822500 4.111901
369.038000 0.913636
369.253500 4.100405
369.469000 1.179732
369.684500 4.136974
369.900100 4.150787
370.115600 4.067926
370.331200 1.479799
370.546800 4.104009
370.762400 1.128668
370.978000 1.326234
371.193600 0.912620
371.409200 4.124798
371.624900 4.160709
371.840500 4.181129
372.056200 1.363148
372.271900 4.101128
372.487600 1.753672
372.703300 4.129915
372.919000 1.460362
373.134800 1.498184
373.350500 1.561926
373.566300 4.154637
373.782000 1.158111
373.997800 4.169498
374.213600 4.167937
374.429400 4.167613
374.645300 1.544990
374.861100 4.167317
375.077000 1.181164
375.292800 4.182329
375.508700 1.514140
375.724600 4.210586
375.940500 4.218404
376.156400 2.680387
376.372400 4.242367
376.588300 4.218667
376.804300 1.396500
377.020300 1.652084
377.236200 1.867391
377.452200 1.347091
377.668200 1.666123
377.884300 1.239996
378.100300 4.253265
378.316400 4.291879
378.532400 1.572927
378.748500 4.301356
378.964600 4.312452
379.180700 1.817032
379.396800 2.326963
379.612900 4.277861
379.829100 1.324317
380.045200 4.285760
380.261400 1.477772
380.477600 4.319085
380.693800 1.528793
380.910000 4.341138
381.126200 1.827782
381.342400 4.319959
381.558700 4.275910
381.774900 4.288607
381.991200 1.553810
382.207500 1.532912
382.423800 4.339054
382.640100 4.341553
382.856400 4.341336
383.072800 4.319502
383.289100 4.351042
383.505500 4.335458
383.721900 4.350442
383.938200 2.129956
384.154600 4.345099
384.371100 1.846417
384.587500 4.348791
384.803900 4.366890
385.020400 1.558935
385.236800 4.356332
385.453300 1.914916
385.669800 4.340702
385.886300 2.211526
386.102800 2.816052
386.319400 1.588099
386.535900 2.380746
386.752500 1.499840
386.969000 4.367673
387.185600 2.475633
387.402200 1.575433
387.618800 1.477847
387.835500 4.396356
388.052100 1.897893
388.268700 4.405654
388.485400 1.469273
388.702100 4.414907
388.918800 1.111013
389.135500 1.994533
389.352200 1.488692
389.568900 4.384425
389.785600 1.573148
390.002400 1.994260
390.219200 1.621795
390.435900 1.310802
390.652700 1.231421
390.869500 1.630490
391.086300 1.248040
391.303200 1.791330
391.520000 1.128303
391.736900 1.067051
391.953700 1.187445
392.170600 1.096723
392.387500 1.256598
392.604400 1.516841
392.821300 1.184816
393.038300 1.623814
393.255200 1.124148
393.472200 1.131156
393.689100 1.306330
393.906100 0.938979
394.123100 1.211949
394.340100 1.057969
394.557200 0.845542
394.774200 0.985928
394.991200 1.066578
395.208300 0.870083
395.425400 0.909619
395.642500 0.939052
395.859600 0.927599
396.076700 0.982608
396.293800 0.974030
396.510900 0.857995
396.728100 0.854886
396.945300 0.812575
397.162400 0.913616
397.379600 1.036436
397.596800 0.832629
397.814000 0.713443
398.031300 0.807753
398.248500 0.876260
398.465800 0.772805
398.683000 0.891981
398.900300 0.768714
399.117600 0.748921
399.334900 0.788527
399.552200 0.759921
399.769600 0.776323
399.986900 0.718399
400.204300 0.775584
400.421600 0.699913
400.639000 0.717452
400.856400 0.657182
401.073800 0.634167
401.291200 0.765147
401.508700 0.687395
401.726100 0.691726
401.943600 0.635022
402.161000 0.674100
402.378500 0.616574
402.596000 0.707314
402.813500 0.627778
403.031000 0.633928
403.248600 0.619698
403.466100 0.614185
403.683700 0.630982
403.901300 0.598184
404.118900 0.531860
404.336500 0.577456
404.554100 0.629988
404.771700 0.647438
404.989300 0.593931
405.207000 0.669027
405.424600 0.521717
405.642300 0.577364
405.860000 0.537221
406.077700 0.571117
406.295400 0.560229
406.513100 0.526402
406.730900 0.508363
406.948600 0.581388
407.166400 0.530666
407.384200 0.509013
407.602000 0.536120
407.819800 0.461525
408.037600 0.579511
408.255400 0.535120
408.473300 0.501435
408.691100 0.505880
408.909000 0.473359
409.126900 0.456165
409.344800 0.445697
409.562700 0.509142
409.780600 0.431734
409.998500 0.476350
410.216500 0.505613
410.434400 0.484430
410.652400 0.439408
410.870400 0.429756
411.088400 0.445482
411.306400 0.440870
411.524400 0.473071
411.742400 0.465674
411.960500 0.456090
412.178500 0.437675
412.396600 0.449574
412.614700 0.433714
412.832800 0.414222
413.050900 0.450516
413.269000 0.441191
413.487100 0.398399
413.705300 0.442118
413.923400 0.394858
414.141600 0.475099
414.359800 0.446397
414.578000 0.439734
414.796200 0.391818
415.014400 0.438803
415.232600 0.422982
415.450900 0.389134
415.669200 0.366514
415.887400 0.386904
416.105700 0.414616
416.324000 0.430424
416.542300 0.378419
416.760600 0.394889
416.979000 0.362263
417.197300 0.361877
417.415700 0.393591
417.634100 0.380981
417.852400 0.393385
418.070800 0.430672
418.289300 0.380456
418.507700 0.361347
418.726100 0.383502
418.944600 0.398419
419.163000 0.401595
419.381500 0.390401
419.600000 0.421135
419.818500 0.428570
420.037000 0.382349
420.255500 0.340875
420.474100 0.391447
420.692600 0.388184
420.911200 0.353174
421.129800 0.377524
421.348300 0.368379
421.566900 0.361722
421.785600 0.367196
422.004200 0.340949
422.222800 0.338711
422.441500 0.365119
422.660100 0.357517
422.878800 0.381523
423.097500 0.351359
423.316200 0.359006
423.534900 0.339660
423.753600 0.356308
423.972400 0.344686
424.191100 0.369019
424.409900 0.347100
424.628700 0.324002
424.847500 0.332712
425.066300 0.369436
425.285100 0.341364
425.503900 0.367163
425.722800 0.358249
425.941600 0.301878
426.160500 0.320460
426.379300 0.349251
426.598200 0.343623
426.817100 0.324908
427.036100 0.384615
427.255000 0.344366
427.473900 0.362119
427.692900 0.359398
427.911800 0.357736
428.130800 0.372147
428.349800 0.356137
428.568800 0.336019
428.787800 0.305099
429.006800 0.296848
429.225900 0.364315
429.444900 0.382694
429.664000 0.308556
429.883100 0.337284
430.102200 0.370494
430.321300 0.351035
430.540400 0.331604
430.759500 0.329923
430.978700 0.377270
431.197800 0.349580
431.417000 0.342033
431.636200 0.337273
431.855300 0.319975
432.074500 0.297290
432.293800 0.359759
432.513000 0.324522
432.732200 0.347696
432.951500 0.337267
433.170700 0.359121
433.390000 0.307295
433.609300 0.331929
433.828600 0.386212
434.047900 0.349041
434.267300 0.414484
434.486600 0.338729
434.705900 0.401786
434.925300 0.335454
435.144700 0.335058
435.364100 0.336794
435.583500 0.317974
435.802900 0.272014
436.022300 0.339455
436.241800 0.341962
436.461200 0.340608
436.680700 0.358981
436.900100 0.325596
437.119600 0.321220
437.339100 0.346837
437.558600 0.355426
437.778200 0.350541
437.997700 0.370480
438.217300 0.342996
438.436800 0.329072
438.656400 0.353239
438.876000 0.348864
439.095600 0.302094
439.315200 0.349964
439.534800 0.325517
439.754500 0.312374
439.974100 0.369999
440.193800 0.370860
440.413500 0.446392
440.633100 0.382629
440.852800 0.344949
441.072500 0.357703
441.292300 0.378610
441.512000 0.371688
441.731800 0.366535
441.951500 0.338558
442.171300 0.379803
442.391100 0.363641
442.610900 0.367925
442.830700 0.356849
443.050500 0.376613
443.270300 0.325042
443.490200 0.390923
443.710100 0.393193
443.929900 0.384374
444.149800 0.372588
444.369700 0.396989
444.589600 0.385011
444.809500 0.339248
445.029500 0.408338
445.249400 0.400203
445.469400 0.441445
445.689400 0.372895
445.909300 0.353121
446.129300 0.358049
446.349300 0.361905
446.569400 0.379339
446.789400 0.360776
447.009400 0.407222
447.229500 0.427033
447.449600 0.413199
447.669600 0.370105
447.889700 0.404426
448.109800 0.390694
448.330000 0.402769
448.550100 0.429596
448.770200 0.358986
448.990400 0.407648
449.210600 0.399858
449.430700 0.389413
449.650900 0.410852
449.871100 0.433121
450.091400 0.466976
450.311600 0.421205
450.531800 0.415570
450.752100 0.430849
450.972400 0.398730
451.192600 0.443165
451.412900 0.487106
451.633200 0.439269
451.853500 0.441326
452.073900 0.411636
452.294200 0.436402
452.514600 0.440955
452.734900 0.413753
452.955300 0.461317
453.175700 0.454180
453.396100 0.516175
453.616500 0.503501
453.836900 0.428930
454.057400 0.533122
454.277800 0.458111
454.498300 0.449218
454.718800 0.491042
454.939300 0.469969
455.159700 0.526817
455.380300 0.501202
455.600800 0.474400
455.821300 0.503369
456.041900 0.476225
456.262400 0.540748
456.483000 0.494437
456.703600 0.462740
456.924200 0.478045
457.144800 0.452612
457.365400 0.539916
457.586000 0.504819
457.806700 0.499255
458.027400 0.566763
458.248000 0.511656
458.468700 0.550126
458.689400 0.557858
458.910100 0.559286
459.130800 0.579432
459.351600 0.559348
459.572300 0.591910
459.793100 0.565156
460.013800 0.488505
460.234600 0.617589
460.455400 0.569218
460.676200 0.612795
460.897000 0.541208
461.117800 0.581753
461.338700 0.534733
461.559500 0.579918
461.780400 0.495184
462.001300 0.586871
462.222200 0.594710
462.443100 0.553995
462.664000 0.627918
462.884900 0.621903
463.105900 0.579950
463.326800 0.603778
463.547800 0.623303
463.768700 0.614864
463.989700 0.665824
464.210700 0.578147
464.431700 0.632086
464.652800 0.620222
464.873800 0.628475
465.094800 0.649563
465.315900 0.654361
465.537000 0.656497
465.758100 0.631041
465.979200 0.732542
466.200300 0.671889
466.421400 0.645186
466.642500 0.678024
466.863700 0.742971
467.084800 0.550298
467.306000 0.688478
467.527200 0.765519
467.748400 0.739228
467.969600 0.699059
468.190800 0.712614
468.412000 0.683466
468.633300 0.664698
468.854500 0.750759
469.075800 0.726692
469.297000 0.744913
469.518300 0.738084
469.739600 0.679184
469.961000 0.632858
470.182300 0.655956
470.403600 0.710317
470.625000 0.690063
470.846300 0.724839
471.067700 0.758527
471.289100 0.741285
471.510500 0.911493
471.731900 0.785245
471.953300 0.809003
472.174800 0.791229
472.396200 0.781131
472.617700 0.778349
472.839100 0.783912
473.060600 0.780538
473.282100 0.786913
473.503600 0.760364
473.725100 0.786453
473.946700 0.753987
474.168200 0.853012
474.389800 0.751952
474.611300 0.855620
474.832900 0.784576
475.054500 0.846454
475.276100 0.772684
475.497700 0.945379
475.719300 0.874745
475.941000 0.737420
476.162600 0.807058
476.384300 0.867536
476.606000 0.825541
476.827700 0.937400
477.049400 0.790960
477.271100 0.883351
477.492800 0.868054
477.714500 0.880108
477.936300 0.854417
478.158000 0.933605
478.379800 1.049226
478.601600 0.862647
478.823400 0.939796
479.045200 0.871519
479.267000 0.958807
479.488800 0.977054
479.710700 0.941708
479.932500 1.025636
480.154400 0.949779
480.376300 0.934584
480.598200 0.939231
480.820100 0.903714
481.042000 0.904264
481.263900 1.054531
481.485900 0.924574
481.707800 0.985373
481.929800 0.995491
482.151700 0.963604
482.373700 1.143537
482.595700 1.021498
482.817700 1.034849
483.039800 0.941483
483.261800 0.853526
483.483800 1.026036
483.705900 0.909907
483.928000 1.020203
484.150100 1.001840
484.372100 1.088969
484.594300 1.063685
484.816400 1.007956
485.038500 1.067286
485.260600 1.083349
485.482800 1.165404
485.705000 1.130527
485.927100 1.109189
486.149300 1.045218
486.371500 1.092541
486.593700 1.087869
486.816000 1.074510
487.038200 1.115849
487.260500 1.171626
487.482700 1.108257
487.705000 0.998937
487.927300 1.246502
488.149600 1.125898
488.371900 1.290220
488.594200 1.183575
488.816500 1.409668
489.038900 0.976706
489.261200 1.207530
489.483600 1.074510
489.706000 1.328971
489.928400 1.209882
490.150800 1.105563
490.373200 1.161719
490.595600 1.128463
490.818000 1.143132
491.040500 1.128742
491.263000 1.240880
491.485400 1.228230
491.707900 1.429907
491.930400 1.218786
492.152900 1.288566
492.375500 1.127209
492.598000 1.541346
492.820500 1.127286
493.043100 1.370497
493.265700 1.234780
493.488200 1.377590
493.710800 1.226844
493.933400 1.206591
494.156100 1.125857
494.378700 1.236490
494.601300 1.398975
494.824000 1.434756
495.046600 1.264073
495.269300 1.164490
495.492000 1.386935
495.714700 1.204417
495.937400 1.718190
496.160100 1.116430
496.382900 1.330107
496.605600 1.285958
496.828400 1.267770
497.051100 1.256811
497.273900 1.266662
497.496700 1.132230
497.719500 1.418034
497.942300 1.710581
498.165200 1.497779
498.388000 1.252754
498.610900 1.488451
498.833700 1.239939
499.056600 1.866640
499.279500 1.211339
499.502400 1.326929
499.725300 1.078099
499.948200 1.272788
500.171200 1.596239
500.394100 1.285608
500.617100 1.365023
500.840000 1.306565
501.063000 1.339402
501.286000 1.209284
501.509000 1.429325
501.732000 1.262257
501.955100 1.441104
502.178100 1.404181
502.401200 1.420443
502.624200 1.799450
502.847300 1.308600
503.070400 1.422287
503.293500 1.206865
503.516600 1.385080
503.739700 1.286662
503.962800 1.350744
504.186000 1.230089
504.409200 1.522793
504.632300 1.216040
504.855500 1.260375
505.078700 1.341620
505.301900 1.635142
505.525100 1.395939
505.748300 1.190428
505.971600 1.138763
506.194800 1.261196
506.418100 1.203712
506.641400 1.536396
506.864700 1.450881
507.088000 1.294301
507.311300 1.682305
507.534600 1.521013
507.757900 1.363311
507.981300 1.464995
508.204600 1.259597
508.428000 1.135920
508.651400 1.189990
508.874800 1.415811
509.098200 1.270812
509.321600 1.227529
509.545000 1.573011
509.768500 1.370597
509.991900 1.504645
510.215400 1.358096
510.438800 1.549038
510.662300 1.374264
510.885800 1.204791
511.109300 1.420165
511.332900 1.251510
511.556400 1.542696
511.779900 1.122600
512.003500 1.446152
512.227000 1.253554
512.450600 1.208437
512.674200 1.406849
512.897800 1.530794
513.121400 1.305120
513.345100 1.271730
513.568700 1.035469
513.792300 1.463151
514.016000 1.212389
514.239700 1.340070
514.463400 1.156624
514.687100 1.586301
514.910800 1.262746
515.134500 1.748308
515.358200 1.096033
515.581900 1.328711
515.805700 1.496179
516.029500 1.016825
516.253200 1.298437
516.477000 1.872854
516.700800 1.436562
516.924600 1.064809
517.148500 1.229346
517.372300 1.464532
517.596100 1.017202
517.820000 1.526349
518.043900 1.142721
518.267700 1.196722
518.491600 1.354754
518.715500 1.318419
518.939500 1.644540
519.163400 1.190686
519.387300 1.196434
519.611300 1.476157
519.835200 1.200296
520.059200 1.054213
520.283200 1.559138
520.507200 1.020133
520.731200 1.477328
520.955200 1.207328
521.179200 1.719458
521.403300 1.199665
521.627300 1.119919
521.851400 0.981672
522.075500 1.318637
522.299600 1.079584
522.523700 1.758907
522.747800 1.247450
522.971900 1.348210
523.196000 1.109354
523.420200 1.146523
523.644300 1.383476
523.868500 1.466095
524.092700 1.147181
524.316900 1.013560
524.541100 1.055024
524.765300 1.145722
524.989500 1.072909
525.213800 1.175304
525.438000 1.236535
525.662300 1.124710
525.886500 1.095700
526.110800 1.307479
526.335100 1.039223
526.559400 1.129446
526.783700 1.178973
527.008100 1.027487
527.232400 1.129061
527.456800 1.166754
527.681100 0.992812
527.905500 1.080945
528.129900 1.041043
528.354300 1.429675
528.578700 1.189416
528.803100 1.044506
529.027600 0.989860
529.252000 1.065141
529.476500 0.851198
529.700900 0.945438
529.925400 0.967523
530.149900 0.902875
530.374400 0.910200
530.598900 0.963749
530.823400 1.093992
531.048000 1.217773
531.272500 1.017176
531.497100 1.026820
531.721700 0.978341
531.946200 1.194132
532.170800 1.040230
532.395400 0.956385
532.620000 0.998745
532.844700 0.926262
533.069300 0.815982
533.294000 0.944975
533.518600 1.006628
533.743300 0.940767
533.968000 0.863468
534.192700 0.943629
534.417400 0.823824
534.642100 0.872296
534.866800 0.837204
535.091600 0.917838
535.316300 0.790452
535.541100 0.793842
535.765900 0.855844
535.990700 0.816610
536.215500 0.770986
536.440300 0.842471
536.665100 0.973852
536.889900 0.813525
537.114800 0.901445
537.339600 0.787141
537.564500 0.902979
537.789400 0.816968
538.014300 0.848291
538.239200 0.808529
538.464100 0.703483
538.689000 0.795850
538.913900 0.771049
539.138900 0.794164
539.363800 0.795774
539.588800 0.749486
539.813800 0.801173
540.038800 0.808466
540.263800 0.835619
540.488800 0.730957
540.713800 0.733874
540.938900 0.792895
541.163900 0.814351
541.389000 0.736893
541.614000 0.688526
541.839100 0.749031
542.064200 0.729625
542.289300 0.720686
542.514400 0.733387
542.739600 0.693544
542.964700 0.703656
543.189900 0.663785
543.415000 0.683433
543.640200 0.650745
543.865400 0.607822
544.090600 0.663369
544.315800 0.658386
544.541000 0.639866
544.766200 0.651497
544.991500 0.722353
545.216700 0.630593
545.442000 0.660369
545.667300 0.654134
545.892600 0.608882
546.117900 0.675511
546.343200 0.606970
546.568500 0.594241
546.793800 0.609668
547.019200 0.497468
547.244500 0.594019
547.469900 0.570423
547.695300 0.549152
547.920600 0.539616
548.146000 0.532157
548.371500 0.518539
548.596900 0.582216
548.822300 0.530308
549.047800 0.560208
549.273200 0.565329
549.498700 0.514561
549.724200 0.551259
549.949600 0.515993
550.175100 0.491174
550.400700 0.531217
550.626200 0.518887
550.851700 0.535799
551.077300 0.540690
551.302800 0.484802
551.528400 0.465470
551.754000 0.570542
551.979600 0.487810
552.205200 0.457445
552.430800 0.493150
552.656400 0.434990
552.882000 0.453642
553.107700 0.478731
553.333300 0.445061
553.559000 0.409812
553.784700 0.472620
554.010400 0.474243
554.236100 0.414000
554.461800 0.441491
554.687500 0.426099
554.913200 0.425672
555.139000 0.394147
555.364800 0.419732
555.590500 0.414875
555.816300 0.407415
556.042100 0.407615
556.267900 0.382418
556.493700 0.401511
556.719500 0.356336
556.945400 0.430462
557.171200 0.353504
557.397100 0.371005
557.623000 0.379908
557.848800 0.359555
558.074700 0.354270
558.300600 0.399050
558.526600 0.361586
558.752500 0.371589
558.978400 0.400694
559.204400 0.321870
559.430300 0.358121
559.656300 0.321611
559.882300 0.350106
560.108300 0.341288
560.334300 0.355861
560.560300 0.314983
560.786300 0.314295
561.012400 0.338303
561.238400 0.345650
561.464500 0.309993
561.690500 0.313984
561.916600 0.340022
562.142700 0.323757
562.368800 0.327978
562.594900 0.311599
562.821100 0.333600
563.047200 0.327499
563.273300 0.301317
563.499500 0.267925
563.725700 0.333528
563.951900 0.275113
564.178100 0.301600
564.404300 0.310126
564.630500 0.309886
564.856700 0.283258
565.082900 0.280296
565.309200 0.273163
565.535500 0.261168
565.761700 0.255954
565.988000 0.246191
566.214300 0.244604
566.440600 0.243233
566.666900 0.273207
566.893200 0.272108
567.119600 0.248889
567.345900 0.247558
567.572300 0.278050
567.798700 0.254168
568.025000 0.234920
568.251400 0.233783
568.477800 0.242798
568.704300 0.245155
568.930700 0.245414
569.157100 0.236229
569.383600 0.232594
569.610000 0.216088
569.836500 0.227810
570.063000 0.214128
570.289500 0.225880
570.516000 0.231570
570.742500 0.218093
570.969000 0.225063
571.195600 0.219393
571.422100 0.220542
571.648700 0.213825
571.875200 0.217157
572.101800 0.212231
572.328400 0.215193
572.555000 0.213305
572.781600 0.206277
573.008200 0.214666
573.234900 0.212604
573.461500 0.206364
573.688200 0.205567
573.914900 0.200421
574.141500 0.198387
574.368200 0.194634
574.594900 0.186022
574.821600 0.184404
575.048400 0.190714
575.275100 0.193199
575.501800 0.198318
575.728600 0.185790
575.955400 0.179117
576.182100 0.196491
576.408900 0.180601
576.635700 0.174180
576.862600 0.194804
577.089400 0.181213
577.316200 0.176943
577.543100 0.189633
577.769900 0.173682
577.996800 0.172797
578.223700 0.167545
578.450500 0.172926
578.677400 0.166492
578.904400 0.162053
579.131300 0.174946
579.358200 0.165414
579.585100 0.163683
579.812100 0.157114
580.039100 0.170976
580.266000 0.151192
580.493000 0.158184
580.720000 0.154183
580.947000 0.161085
581.174100 0.148660
581.401100 0.148895
581.628100 0.145878
581.855200 0.148870
582.082200 0.152688
582.309300 0.142900
582.536400 0.146962
582.763500 0.140860
582.990600 0.139544
583.217700 0.130255
583.444900 0.145444
583.672000 0.160586
583.899100 0.147556
584.126300 0.143631
584.353500 0.140817
584.580700 0.144359
584.807900 0.156728
585.035100 0.144054
585.262300 0.138895
585.489500 0.131635
585.716700 0.137495
585.944000 0.150878
586.171300 0.133659
586.398500 0.129392
586.625800 0.136611
586.853100 0.133484
587.080400 0.131059
587.307700 0.129929
587.535000 0.133300
587.762400 0.122226
587.989700 0.116313
588.217100 0.142673
588.444500 0.132380
588.671800 0.130124
588.899200 0.121834
589.126600 0.119881
589.354000 0.138889
589.581500 0.119136
589.808900 0.132097
590.036300 0.141494
590.263800 0.130723
590.491300 0.122086
590.718700 0.118284
590.946200 0.124902
591.173700 0.130250
591.401200 0.130418
591.628800 0.121465
591.856300 0.125660
592.083800 0.123370
592.311400 0.114011
592.538900 0.120735
592.766500 0.117871
592.994100 0.117606
593.221700 0.116451
593.449300 0.112299
593.676900 0.113285
593.904600 0.115431
594.132200 0.108155
594.359800 0.110135
594.587500 0.108734
594.815200 0.107540
595.042900 0.121377
595.270500 0.119545
595.498300 0.109647
595.726000 0.116923
595.953700 0.114193
596.181400 0.109120
596.409200 0.112037
596.636900 0.123481
596.864700 0.117857
597.092500 0.116211
597.320300 0.124863
597.548100 0.116075
597.775900 0.122667
598.003700 0.120366
598.231500 0.108520
598.459400 0.124753
598.687200 0.129998
598.915100 0.121137
599.143000 0.114075
599.370900 0.119000
599.598800 0.114702
599.826700 0.107821
600.054600 0.116059
600.282500 0.115918
600.510500 0.106137
600.738400 0.101869
600.966400 0.099750
601.194400 0.094354
601.422300 0.098420
601.650300 0.091915
601.878300 0.101627
602.106400 0.104066
602.334400 0.114781
602.562400 0.111278
602.790500 0.113526
603.018500 0.099472
603.246600 0.112569
603.474700 0.102261
603.702800 0.107234
603.930900 0.123070
604.159000 0.108526
604.387100 0.109650
604.615200 0.097983
604.843400 0.111183
605.071500 0.103537
605.299700 0.106409
605.527900 0.099463
605.756100 0.095768
605.984300 0.093052
606.212500 0.081507
606.440700 0.092544
606.668900 0.100659
606.897200 0.090455
607.125400 0.101107
607.353700 0.088788
607.581900 0.094212
607.810200 0.088261
608.038500 0.093943
608.266800 0.094055
608.495100 0.089031
608.723500 0.086527
608.951800 0.091794
609.180100 0.082085
609.408500 0.097334
609.636900 0.095248
609.865300 0.096547
610.093600 0.095576
610.322000 0.099082
610.550500 0.107113
610.778900 0.098428
611.007300 0.094874
611.235700 0.104089
611.464200 0.110410
611.692700 0.091183
611.921100 0.103635
612.149600 0.100744
612.378100 0.105558
612.606600 0.100711
612.835100 0.102407
613.063700 0.081790
613.292200 0.102795
613.520800 0.092706
613.749300 0.099727
613.977900 0.103856
614.206500 0.098448
614.435100 0.096087
614.663700 0.101317
614.892300 0.074946
615.120900 0.096531
615.349500 0.105479
615.578200 0.086226
615.806800 0.093884
616.035500 0.091697
616.264200 0.089342
616.492900 0.080854
616.721600 0.091940
616.950300 0.094894
617.179000 0.073884
617.407700 0.100962
617.636500 0.094709
617.865200 0.104009
618.094000 0.083577
618.322700 0.091174
618.551500 0.072697
618.780300 0.080221
619.009100 0.089108
619.237900 0.080759
619.466700 0.098862
619.695600 0.080758
619.924400 0.098182
620.153300 0.094259
620.382100 0.084978
620.611000 0.081616
620.839900 0.076507
621.068800 0.088122
621.297700 0.099341
621.526600 0.088638
621.755600 0.091926
621.984500 0.092181
622.213500 0.078883
622.442400 0.103161
622.671400 0.098511
622.900400 0.089276
623.129400 0.100073
623.358400 0.103481
623.587400 0.074907
623.816400 0.074916
624.045400 0.091896
624.274500 0.096192
624.503500 0.062090
624.732600 0.059386
624.961700 0.097242
625.190800 0.077615
625.419900 0.085070
625.649000 0.092845
625.878100 0.080460
626.107200 0.066634
626.336400 0.090712
626.565500 0.090848
626.794700 0.109044
627.023800 0.100910
627.253000 0.088738
627.482200 0.078743
627.711400 0.071745
627.940600 0.095307
628.169800 0.097692
628.399100 0.079045
628.628300 0.053246
628.857600 0.074649
629.086800 0.072933
629.316100 0.076037
629.545400 0.079287
629.774700 0.088461
630.004000 0.079769
630.233300 0.096125
630.462600 0.090392
630.692000 0.080893
630.921300 0.111778
631.150700 0.099591
631.380100 0.095896
631.609400 0.076473
631.838800 0.081537
632.068200 0.093843
632.297600 0.094165
632.527100 0.087395
632.756500 0.076475
632.985900 0.093244
633.215400 0.076130
633.444800 0.092113
633.674300 0.100093
633.903800 0.079703
634.133300 0.072027
634.362800 0.089596
634.592300 0.066365
634.821800 0.080091
635.051400 0.128714
635.280900 0.097313
635.510500 0.051405
635.740000 0.086610
635.969600 0.108626
636.199200 0.099878
636.428800 0.075472
636.658400 0.069570
636.888000 0.083068
637.117700 0.074073
637.347300 0.068809
637.577000 0.069397
637.806600 0.110716
638.036300 0.086647
638.266000 0.090690
638.495700 0.078743
638.725400 0.087635
638.955100 0.075522
639.184800 0.065754
639.414500 0.076052
639.644300 0.094093
639.874000 0.068364
640.103800 0.078545
640.333600 0.067823
640.563300 0.054522
640.793100 0.056570
641.022900 0.099393
641.252800 0.104164
641.482600 0.113359
641.712400 0.055701
641.942300 0.097497
642.172100 0.097642
642.402000 0.084233
642.631900 0.053106
642.861700 0.099495
643.091600 0.071504
643.321600 0.097104
643.551500 0.047759
643.781400 0.081742
644.011300 0.073140
644.241300 0.110262
644.471200 0.048922
644.701200 0.077790
644.931200 0.076226
645.161200 0.090129
645.391200 0.114265
645.621200 0.068667
645.851200 0.053855
646.081200 0.054721
646.311300 0.113843
646.541300 0.105258
646.771400 0.085225
647.001500 0.112738
647.231600 0.113462
647.461600 0.119369
647.691800 0.150124
647.921900 0.083978
648.152000 0.119591
648.382100 0.097948
648.612300 0.105625
648.842400 0.078840
649.072600 0.106484
649.302800 0.044238
649.532900 0.109814
649.763100 0.103263
649.993300 0.084155
650.223600 0.074146
650.453800 0.040213
650.684000 0.048012
650.914300 0.088402
651.144500 0.129585
651.374800 0.101496
651.605100 0.088589
651.835400 0.048538
652.065700 0.101478
652.296000 0.063702
652.526300 0.129476
652.756600 0.055681
652.987000 0.075474
653.217300 0.050346
653.447700 0.083293
653.678000 0.058578
653.908400 0.064572
654.138800 0.107628
654.369200 0.094213
654.599600 0.096591
654.830000 0.093250
655.060500 0.148920
655.290900 0.147399
655.521300 0.141433
655.751800 0.103672
655.982300 0.002910
656.212800 0.000974
656.443300 0.001458
656.673800 0.001232
656.904300 0.038616
657.134800 0.089876
657.365300 0.091690
657.595900 0.086677
657.826400 0.087878
658.057000 0.094151
658.287500 0.094084
658.518100 0.096724
658.748700 0.091911
658.979300 0.092073
659.209900 0.127378
659.440600 0.144704
659.671200 0.152616
659.901800 0.155629
660.132500 0.159113
660.363200 0.150986
660.593800 0.107824
660.824500 0.072881
661.055200 0.053635
661.285900 0.130038
661.516600 0.074027
661.747400 0.081467
661.978100 0.101207
662.208800 0.145706
662.439600 0.094531
662.670400 0.104627
662.901100 0.081972
663.131900 0.130931
663.362700 0.050662
663.593500 0.141509
663.824300 0.117067
664.055200 0.059808
664.286000 0.093537
664.516800 0.141796
664.747700 0.121738
664.978600 0.127524
665.209400 0.122178
665.440300 0.121697
665.671200 0.107965
665.902100 0.127314
666.133000 0.069009
666.364000 0.120938
666.594900 0.079766
666.825900 0.085357
667.056800 0.083082
667.287800 0.080773
667.518800 0.061658
667.749700 0.076047
667.980700 0.076812
668.211700 0.083442
668.442800 0.073301
668.673800 0.098682
668.904800 0.096699
669.135900 0.136174
669.366900 0.097618
669.598000 0.089363
669.829100 0.124646
670.060200 0.059255
670.291300 0.109402
670.522400 0.101742
670.753500 0.081906
670.984600 0.078818
671.215700 0.100348
671.446900 0.135870
671.678100 0.070451
671.909200 0.089688
672.140400 0.104980
672.371600 0.074549
672.602800 0.084400
672.834000 0.080679
673.065200 0.057298
673.296400 0.092306
673.527700 0.088494
673.758900 0.093248
673.990200 0.082770
674.221400 0.096245
674.452700 0.081227
674.684000 0.085029
674.915300 0.155321
675.146600 0.110866
675.377900 0.074468
675.609300 0.104090
675.840600 0.079385
676.071900 0.094365
676.303300 0.083522
676.534700 0.092836
676.766100 0.088715
676.997400 0.116767
677.228800 0.080457
677.460200 0.076567
677.691700 0.068605
677.923100 0.090537
678.154500 0.087916
678.386000 0.074914
678.617400 0.086072
678.848900 0.073473
679.080400 0.132625
679.311900 0.127061
679.543400 0.053087
679.774900 0.068619
680.006400 0.082389
680.237900 0.067846
680.469400 0.094133
680.701000 0.086455
680.932500 0.067195
681.164100 0.072742
681.395700 0.100866
681.627300 0.081915
681.858900 0.081742
682.090500 0.071736
682.322100 0.057573
682.553700 0.094030
682.785400 0.064889
683.017000 0.096170
683.248700 0.122079
683.480300 0.050929
683.712000 0.058828
683.943700 0.084854
684.175400 0.061789
684.407100 0.054490
684.638800 0.074700
684.870500 0.086714
685.102300 0.105695
685.334000 0.092593
685.565800 0.106300
685.797500 0.097246
686.029300 0.076069
686.261100 0.096901
686.492900 0.082164
686.724700 0.077775
686.956500 0.058952
687.188300 0.065355
687.420200 0.105113
687.652000 0.062957
687.883800 0.059739
688.115700 0.055336
688.347600 0.071652
688.579500 0.058163
688.811400 0.119002
689.043300 0.082760
689.275200 0.067117
689.507100 0.107411
689.739000 0.084733
689.971000 0.053992
690.202900 0.091367
690.434900 0.107864
690.666900 0.080938
690.898800 0.056717
691.130800 0.118844
691.362800 0.103711
691.594800 0.092569
691.826900 0.093149
692.058900 0.067394
692.290900 0.092345
692.523000 0.098384
692.755000 0.077986
692.987100 0.096237
693.219200 0.091226
693.451300 0.086793
693.683400 0.083799
693.915500 0.071884
694.147600 0.062668
694.379700 0.066109
694.611900 0.062444
694.844000 0.083227
695.076200 0.041947
695.308300 0.095408
695.540500 0.119196
695.772700 0.064314
696.004900 0.104412
696.237100 0.072591
696.469300 0.106319
696.701600 0.108324
696.933800 0.068321
697.166000 0.092380
697.398300 0.123399
697.630600 0.103321
697.862800 0.122983
698.095100 0.091985
698.327400 0.117604
698.559700 0.071797
698.792000 0.062864
699.024300 0.067156
699.256700 0.073389
699.489000 0.067139
699.721400 0.091668
699.953700 0.077539
700.186100 0.110716
700.418500 0.072184
700.650900 0.090647
700.883300 0.117270
701.115700 0.080583
701.348100 0.044494
701.580600 0.109576
701.813000 0.089034
702.045400 0.081819
702.277900 0.099586
702.510400 0.096553
702.742900 0.095194
702.975300 0.061560
703.207800 0.103237
703.440300 0.092643
703.672900 0.145804
703.905400 0.080138
704.137900 0.125976
704.370500 0.072580
704.603000 0.067480
704.835600 0.107909
705.068200 0.072912
705.300800 0.118079
705.533400 0.076579
705.766000 0.087118
705.998600 0.113129
706.231200 0.079856
706.463800 0.112568
706.696500 0.070034
706.929100 0.046655
707.161800 0.057046
707.394500 0.096711
707.627200 0.055399
707.859900 0.101345
708.092600 0.104052
708.325300 0.073121
708.558000 0.095677
708.790700 0.089552
709.023500 0.108596
709.256200 0.063318
709.489000 0.071263
709.721700 0.058055
709.954500 0.085577
710.187300 0.067506
710.420100 0.090417
710.652900 0.068740
710.885700 0.089976
711.118600 0.093013
711.351400 0.063503
711.584200 0.104609
711.817100 0.101747
712.050000 0.048401
712.282800 0.110856
712.515700 0.084993
712.748600 0.104950
712.981500 0.043450
713.214400 0.116626
713.447400 0.093964
713.680300 0.102208
713.913200 0.105312
714.146200 0.063794
714.379100 0.080229
714.612100 0.072509
714.845100 0.090289
715.078100 0.091054
715.311100 0.041026
715.544100 0.080011
715.777100 0.071354
716.010200 0.062903
716.243200 0.026702
716.476200 0.078876
716.709300 0.078825
716.942400 0.083078
717.175400 0.116566
717.408500 0.107416
717.641600 0.106807
717.874700 0.065610
718.107800 0.085791
718.341000 0.067573
718.574100 0.071760
718.807200 0.108370
719.040400 0.082424
719.273600 0.104097
719.506700 0.081995
719.739900 0.110799
719.973100 0.093297
720.206300 0.060127
720.439500 0.066029
720.672700 0.105224
720.906000 0.067944
721.139200 0.065691
721.372500 0.126120
721.605700 0.091589
721.839000 0.101960
722.072300 0.082662
722.305500 0.054399
722.538800 0.064755
722.772100 0.106184
723.005500 0.034921
723.238800 0.087360
723.472100 0.054707
723.705500 0.075719
723.938800 0.073750
724.172200 0.074449
724.405600 0.097741
724.638900 0.159817
724.872300 0.071627
725.105700 0.129045
725.339100 0.084052
725.572600 0.078631
725.806000 0.090376
726.039400 0.118135
726.272900 0.096326
726.506300 0.128910
726.739800 0.083452
726.973300 0.098037
727.206800 0.083403
727.440300 0.130767
727.673800 0.094972
727.907300 0.089047
728.140800 0.081085
728.374300 0.113994
728.607900 0.082596
728.841400 0.036534
729.075000 0.092411
729.308600 0.064124
729.542100 0.062348
729.775700 0.087601
730.009300 0.060305
730.242900 0.079633
730.476600 0.114625
730.710200 0.080839
730.943800 0.100922
731.177500 0.124087
731.411100 0.095258
731.644800 0.101508
731.878500 0.061994
732.112200 0.072410
732.345800 0.094073
732.579500 0.107451
732.813300 0.083694
733.047000 0.107998
733.280700 0.129383
733.514500 0.071373
733.748200 0.102919
733.982000 0.086193
734.215700 0.080206
734.449500 0.079471
734.683300 0.090000
734.917100 0.068758
735.150900 0.076487
735.384700 0.108568
735.618500 0.076373
735.852400 0.102839
736.086200 0.077248
736.320100 0.074408
736.553900 0.088426
736.787800 0.076828
737.021700 0.056921
737.255600 0.074150
737.489500 0.056497
737.723400 0.038255
737.957300 0.084150
738.191200 0.070364
738.425200 0.092430
738.659100 0.072240
738.893100 0.045667
739.127100 0.097358
739.361000 0.096269
739.595000 0.116653
739.829000 0.062769
740.063000 0.068778
740.297000 0.069923
740.531000 0.064148
740.765100 0.076074
740.999100 0.101559
741.233200 0.094583
741.467200 0.103479
741.701300 0.072201
741.935400 0.094784
742.169500 0.063718
742.403600 0.078763
742.637700 0.059059
742.871800 0.057264
743.105900 0.082523
743.340000 0.064533
743.574200 0.099960
743.808300 0.100483
744.042500 0.072696
744.276700 0.106082
744.510800 0.107095
744.745000 0.078701
744.979200 0.075130
745.213400 0.088950
745.447700 0.077750
745.681900 0.107297
745.916100 0.074029
746.150400 0.093271
746.384600 0.110628
746.618900 0.069515
746.853200 0.078929
747.087400 0.102174
747.321700 0.077896
747.556000 0.083504
747.790300 0.079538
748.024700 0.034479
748.259000 0.074587
748.493300 0.112367
748.727700 0.063961
748.962000 0.104568
749.196400 0.054747
749.430800 0.094606
749.665200 0.057149
749.899500 0.073743
750.133900 0.052297
750.368400 0.049024
750.602800 0.081073
750.837200 0.059694
751.071700 0.075214
751.306100 0.056831
751.540600 0.078021
751.775000 0.083987
752.009500 0.092100
752.244000 0.073101
752.478500 0.046672
752.713000 0.107983
752.947500 0.071716
753.182000 0.078256
753.416600 0.060071
753.651100 0.101807
753.885600 0.073732
754.120200 0.091653
754.354800 0.072655
754.589400 0.078759
754.823900 0.076403
755.058500 0.082125
755.293100 0.085750
755.527800 0.093025
755.762400 0.063638
755.997000 0.098094
756.231700 0.101110
756.466300 0.087841
756.701000 0.068672
756.935600 0.069724
757.170300 0.081965
757.405000 0.086977
757.639700 0.098947
757.874400 0.081214
758.109100 0.089647
758.343800 0.095843
758.578600 0.078868
758.813300 0.076531
759.048100 0.068208
759.282800 0.074502
759.517600 0.090945
759.752400 0.112459
759.987200 0.077635
760.222000 0.084546
760.456800 0.087789
760.691600 0.092654
760.926400 0.094002
761.161300 0.081822
761.396100 0.068073
761.631000 0.096548
761.865800 0.107778
762.100700 0.074944
762.335600 0.092857
762.570500 0.087336
762.805400 0.059160
763.040300 0.061714
763.275200 0.064869
763.510100 0.084348
763.745000 0.110961
763.980000 0.111816
764.214900 0.079647
764.449900 0.100011
764.684900 0.053916
764.919800 0.083253
765.154800 0.059261
765.389800 0.101739
765.624800 0.093151
765.859900 0.084170
766.094900 0.068252
766.329900 0.086444
766.565000 0.106709
766.800000 0.063996
767.035100 0.081819
767.270100 0.110847
767.505200 0.086370
767.740300 0.082083
767.975400 0.105324
768.210500 0.085097
768.445600 0.063415
768.680800 0.060458
768.915900 0.097510
769.151000 0.082552
769.386200 0.080313
769.621400 0.081312
769.856500 0.065414
770.091700 0.103564
770.326900 0.095307
770.562100 0.091297
770.797300 0.094801
771.032500 0.084772
771.267700 0.103325
771.503000 0.095937
771.738200 0.101590
771.973500 0.041334
772.208700 0.098529
772.444000 0.095146
772.679300 0.076542
772.914600 0.072462
773.149900 0.065379
773.385200 0.051617
773.620500 0.085844
773.855800 0.103789
774.091100 0.068316
774.326500 0.111056
774.561800 0.111196
774.797200 0.140392
775.032600 0.115365
775.267900 0.016833
775.503300 0.080248
775.738700 0.110414
775.974100 0.074510
776.209500 0.100130
776.445000 0.078962
776.680400 0.083546
776.915800 0.083797
777.151300 0.059834
777.386800 0.134030
777.622200 0.071737
777.857700 0.071995
778.093200 0.095475
778.328700 0.067295
778.564200 0.093751
778.799700 0.091154
779.035200 0.097465
779.270700 0.096029
779.506300 0.100807
779.741800 0.100299
779.977400 0.091180
780.213000 0.115194
780.448500 0.107082
780.684100 0.069679
780.919700 0.101572
781.155300 0.092731
781.390900 0.086787
781.626500 0.070910
781.862200 0.077295
782.097800 0.103888
782.333500 0.090558
782.569100 0.092225
782.804800 0.081332
783.040500 0.092660
783.276100 0.060038
783.511800 0.084253
783.747500 0.061399
783.983200 0.082552
784.219000 0.089163
784.454700 0.097740
784.690400 0.124417
784.926200 0.096542
785.161900 0.106853
785.397700 0.095076
785.633500 0.068281
785.869200 0.109606
786.105000 0.112363
786.340800 0.112484
786.576600 0.062793
786.812400 0.099885
787.048300 0.082202
787.284100 0.103777
787.519900 0.119315
787.755800 0.131922
787.991700 0.077920
788.227500 0.074868
788.463400 0.066109
788.699300 0.097007
788.935200 0.081428
789.171100 0.090924
789.407000 0.106104
789.642900 0.099926
789.878900 0.115474
790.114800 0.117992
790.350700 0.109569
790.586700 0.125808
790.822700 0.101138
791.058600 0.087044
791.294600 0.101702
791.530600 0.112218
791.766600 0.076376
792.002600 0.077262
792.238700 0.061516
792.474700 0.141793
792.710700 0.085844
792.946800 0.060154
793.182800 0.067516
793.418900 0.119691
793.655000 0.068779
793.891000 0.146809
794.127100 0.062756
794.363200 0.109246
794.599300 0.077364
794.835500 0.081015
795.071600 0.077862
795.307700 0.094091
795.543900 0.087349
795.780000 0.102989
796.016200 0.078784
796.252300 0.111376
796.488500 0.093222
796.724700 0.111139
796.960900 0.081677
797.197100 0.102722
797.433300 0.099838
797.669500 0.096046
797.905800 0.095389
798.142000 0.069691
798.378300 0.089395
798.614500 0.041026
798.850800 0.114183
799.087100 0.064333
799.323300 0.038843
799.559600 0.071809
799.795900 0.138165
800.032200 0.087675
800.268600 0.056934
800.504900 0.143468
800.741200 0.103713
800.977600 0.106102
801.213900 0.097176
801.450300 0.105287
801.686700 0.118158
801.923000 0.131585
802.159400 0.078151
802.395800 0.119830
802.632200 0.054731
802.868600 0.093829
803.105100 0.125360
803.341500 0.068556
803.577900 0.117266
803.814400 0.142683
804.050800 0.044009
804.287300 0.115382
804.523800 0.062835
804.760300 0.109887
804.996800 0.047462
805.233300 0.109941
805.469800 0.133815
805.706300 0.075309
805.942800 0.070047
806.179400 0.105350
806.415900 0.088331
806.652500 0.120980
806.889000 0.101473
807.125600 0.062313
807.362200 0.033161
807.598800 0.075437
807.835400 0.065882
808.072000 0.078656
808.308600 0.148918
808.545200 0.075308
808.781800 0.047523
809.018500 0.108894
809.255100 0.091667
809.491800 0.083351
809.728400 0.085083
809.965100 0.067001
810.201800 0.088290
810.438500 0.033469
810.675200 0.079488
810.911900 0.096112
811.148600 0.139598
811.385300 0.131487
811.622100 0.069724
811.858800 0.085316
812.095600 0.109556
812.332300 0.057565
812.569100 0.114219
812.805900 0.033620
813.042700 0.101789
813.279500 0.068564
813.516300 0.091583
813.753100 0.095825
813.989900 0.103884
814.226700 0.126952
814.463600 0.111983
814.700400 0.118600
814.937300 0.071071
815.174200 0.073046
815.411000 0.105751
815.647900 0.062126
815.884800 0.035253
816.121700 0.108574
816.358600 0.112883
816.595500 0.123622
816.832400 0.106507
817.069400 0.082386
817.306300 0.092860
817.543300 0.071155
817.780200 0.019856
818.017200 0.140965
818.254200 0.091930
818.491200 0.096690
818.728200 0.158213
818.965200 0.095236
819.202200 0.167314
819.439200 0.077831
819.676200 0.030656
819.913300 0.029836
820.150300 0.056140
820.387400 0.148818
820.624400 0.069976
820.861500 0.098988
821.098600 0.052890
821.335700 0.154504
821.572700 0.072484
821.809900 0.134975
822.047000 0.128080
822.284100 0.071729
822.521200 0.134398
822.758400 0.151616
822.995500 0.072536
823.232700 0.202294
823.469800 0.166029
823.707000 0.076611
823.944200 0.063186
824.181400 0.101969
824.418600 0.126764
824.655800 0.017762
824.893000 0.201627
825.130200 0.092250
825.367500 0.119702
825.604700 0.064393
825.841900 0.041417
826.079200 0.095719
826.316500 0.121198
826.553700 0.044414
826.791000 0.159984
827.028300 0.125231
827.265600 0.142827
827.502900 0.102163
827.740200 0.095140
827.977600 0.146054
828.214900 0.118285
828.452200 0.180768
828.689600 0.042881
828.927000 0.019317
829.164300 0.093304
829.401700 0.073801
829.639100 0.069600
829.876500 0.064923
830.113900 0.132958
830.351300 0.147061
830.588700 0.088843
830.826100 0.121081
831.063600 0.044592
831.301000 0.128292
831.538500 0.081140
831.775900 0.160493
832.013400 0.199341
832.250900 0.010022
832.488400 0.083593
832.725900 0.097401
832.963400 0.159811
833.200900 0.250796
833.438400 0.135909
833.675900 0.109772
833.913500 0.157034
834.151000 0.111841
834.388600 0.106534
834.626100 0.079663
834.863700 0.113442
835.101300 0.168456
835.338900 0.096952
835.576500 0.045053
835.814100 0.068637
836.051700 0.212950
836.289300 0.192828
836.526900 0.095623
836.764600 0.151391
837.002200 0.201877
837.239900 0.239977
837.477500 0.093965
837.715200 -0.002923
837.952900 -0.002460
838.190600 0.171034
838.428300 0.004373
838.666000 0.090760
838.903700 0.198786
839.141400 0.137347
839.379100 -0.015729
839.616900 0.012251
839.854600 0.066429
840.092400 0.129533
840.330200 0.101768
840.567900 0.087410
840.805700 0.111815
841.043500 0.029572
841.281300 0.070765
841.519100 0.012856
841.756900 0.026765
841.994700 0.083124
842.232600 0.034741
842.470400 0.174993
842.708200 0.040117
842.946100 0.077243
843.184000 0.025029
843.421800 0.161772
843.659700 0.201443
843.897600 0.053437
844.135500 0.188287
844.373400 0.144128
844.611300 0.207760
844.849200 0.163449
845.087200 0.161593
845.325100 0.307707
845.563100 -0.074427
845.801000 0.103989
846.039000 0.113280
846.277000 0.154967
846.514900 0.223547
846.752900 0.217131
846.990900 0.119975
847.228900 -0.002024
847.466900 0.195702
847.705000 0.089495
847.943000 0.142886
848.181000 0.087419
848.419100 0.160298
848.657100 0.174044
848.895200 0.128706
849.133300 0.178965
849.371300 0.206362
849.609400 0.136998
849.847500 0.031823
850.085600 0.251547
850.323700 0.195078
850.561900 0.121974
850.800000 0.012063
851.038100 0.228112
851.276300 0.020777
851.514400 0.191634
851.752600 0.164810
851.990800 0.048910
852.228900 -0.014006
852.467100 0.171478
852.705300 0.127957
852.943500 0.069510
853.181700 0.084730
853.420000 0.090414
853.658200 0.077599
853.896400 0.147068
854.134700 0.129766
854.372900 0.143722
854.611200 0.062855
854.849500 0.138124
855.087700 0.154463
855.326000 0.145186
855.564300 0.091497
855.802600 0.177832
856.040900 0.191896
856.279200 0.066449
856.517600 0.109987
856.755900 0.079428
856.994200 0.084299
857.232600 0.089616
857.471000 0.121600
857.709300 0.132219
857.947700 0.034653
858.186100 0.123083
858.424500 0.137191
858.662900 0.196438
858.901300 0.111685
859.139700 0.085448
859.378100 0.035302
859.616600 0.074271
859.855000 0.111096
860.093500 0.080501
860.331900 0.026376
860.570400 0.186500
860.808900 0.191317
861.047300 0.070255
861.285800 0.122556
861.524300 0.232662
861.762800 0.080138
862.001300 0.097037
862.239900 0.092784
862.478400 0.216713
862.716900 0.269573
862.955500 0.142236
863.194000 0.104664
863.432600 0.178162
863.671200 0.183681
863.909800 0.035971
864.148300 0.139851
864.386900 0.056069
864.625500 0.174317
864.864200 0.167233
865.102800 0.000996
865.341400 0.124036
865.580000 0.118783
865.818700 0.328266
866.057300 0.102733
866.296000 0.010765
866.534700 0.213685
866.773300 0.132514
867.012000 0.122154
867.250700 0.077384
867.489400 -0.043723
867.728100 0.178263
867.966900 0.212514
868.205600 -0.005141
868.444300 0.109031
868.683100 0.010552
868.921800 0.064817
869.160600 0.132482
869.399300 0.079023
869.638100 0.082989
869.876900 0.009559
870.115700 0.149677
870.354500 0.211088
870.593300 -0.041239
870.832100 0.182096
871.070900 0.155208
871.309700 0.086296
871.548600 0.191094
871.787400 0.094897
872.026300 0.046294
872.265100 -0.019313
872.504000 0.440449
872.742900 0.260176
872.981800 0.418211
873.220700 0.232746
873.459600 0.137980
873.698500 0.332021
873.937400 0.086900
874.176300 0.043673
874.415300 0.291277
874.654200 0.070450
874.893200 0.053302
875.132100 0.143816
875.371100 0.235655
875.610100 0.175658
875.849100 0.259531
876.088000 0.150225
876.327000 0.037361
876.566100 0.272532
876.805100 0.076590
877.044100 0.140375
877.283100 0.039830
877.522200 -0.033947
877.761200 0.089986
878.000300 0.166165
878.239300 0.165085
878.478400 0.205546
878.717500 0.166320
878.956600 0.129521
879.195700 0.117973
879.434800 -0.074841
879.673900 0.142964
879.913000 0.121996
880.152100 0.050158
880.391300 0.158124
880.630400 0.115506
880.869600 0.202323
881.108700 0.024638
881.347900 0.170522
881.587100 0.114741
881.826200 0.139966
882.065400 0.181754
882.304600 0.037261
882.543800 0.195621
882.783100 0.275236
883.022300 0.075762
883.261500 0.180936
883.500700 0.036037
883.740000 0.047509
883.979200 0.237232
884.218500 -0.063304
884.457800 0.001622
884.697100 0.210853
884.936300 0.088064
885.175600 0.156604
885.414900 0.035505
885.654200 0.187072
885.893600 0.136504
886.132900 0.297102
886.372200 0.123976
886.611600 -0.072412
886.850900 0.080931
887.090300 0.210188
887.329600 0.207434
887.569000 0.161531
887.808400 0.128239
888.047800 -0.129509
888.287200 -0.039366
888.526600 0.200465
888.766000 0.069560
889.005400 0.164604
889.244800 0.142934
889.484300 0.151846
889.723700 0.171913
889.963200 0.099077
890.202600 0.118984
890.442100 0.144021
890.681600 0.192241
890.921100 0.198257
891.160600 0.273536
891.400100 0.106205
891.639600 0.333876
891.879100 0.018512
892.118600 0.035429
892.358100 0.092767
892.597700 0.219972
892.837200 0.152826
893.076800 0.175652
893.316300 0.218031
893.555900 0.111514
893.795500 0.117831
894.035100 0.497518
894.274700 0.171716
894.514300 0.143136
894.753900 0.032997
894.993500 0.070674
895.233100 0.025129
895.472700 0.036536
895.712400 0.145828
895.952000 0.117691
896.191700 0.228225
896.431400 0.370055
896.671000 0.312693
896.910700 0.129692
897.150400 0.298145
897.390100 0.112761
897.629800 0.106999
897.869500 0.043507
898.109200 0.311826
898.348900 0.203763
898.588700 0.194766
898.828400 0.273095
899.068200 0.314576
899.307900 0.088816
899.547700 0.475577
899.787500 0.204978
900.027200 0.191188
900.267000 0.291100
900.506800 0.237642
900.746600 0.089039
900.986400 0.058410
901.226300 0.033789
901.466100 0.006923
901.705900 0.283769
901.945800 0.050829
902.185600 0.161620
902.425500 -0.043204
902.665400 0.144314
902.905200 0.116112
903.145100 0.074569
903.385000 0.159354
903.624900 0.174576
903.864800 0.148615
904.104700 0.187559
904.344600 0.318414
904.584600 -0.055149
904.824500 0.164114
905.064400 0.080709
905.304400 0.009158
905.544400 0.077186
905.784300 0.358099
906.024300 0.077540
906.264300 0.064648
906.504300 0.137266
906.744300 0.285743
906.984300 0.168269
907.224300 0.261913
907.464300 0.259848
907.704300 0.058218
907.944400 0.162585
908.184400 -0.155683
908.424500 0.193984
908.664500 -0.071978
908.904600 0.118597
909.144700 0.093819
909.384700 0.312878
909.624800 -0.117828
909.864900 0.269646
910.105000 0.043428
910.345200 -0.206164
910.585300 0.302013
910.825400 0.107262
911.065500 0.113355
911.305700 -0.008682
911.545800 0.136971
911.786000 0.087866
912.026200 0.298352
912.266300 0.186595
912.506500 0.010569
912.746700 0.314382
912.986900 0.164922
913.227100 0.111087
913.467300 0.081502
913.707500 -0.025594
913.947800 0.218383
914.188000 0.131473
914.428300 0.480897
914.668500 0.029026
914.908800 0.009539
915.149000 0.122741
915.389300 0.243761
915.629600 0.168481
915.869900 0.112896
916.110200 -0.027544
916.350500 0.122795
916.590800 0.221090
916.831100 0.053205
917.071400 0.190689
917.311800 0.260436
917.552100 -0.004625
917.792500 0.045367
918.032800 0.035035
918.273200 0.372732
918.513600 0.176616
918.753900 0.256600
918.994300 0.090066
919.234700 0.161486
919.475100 0.511652
919.715500 0.391052
919.956000 0.391786
920.196400 0.121166
920.436800 0.066046
920.677300 0.083619
920.917700 0.205051
921.158200 0.250148
921.398600 0.282576
921.639100 0.518080
921.879600 0.162781
922.120100 0.433756
922.360600 0.090993
922.601100 -0.137920
922.841600 0.115088
923.082100 0.080489
923.322600 0.131184
923.563100 0.200477
923.803700 0.123613
924.044200 0.299395
924.284800 0.111557
924.525400 0.321928
924.765900 0.323634
925.006500 0.110171
925.247100 -0.075227
925.487700 0.041116
925.728300 0.175476
925.968900 0.028689
926.209500 0.006926
926.450100 0.407997
926.690800 0.164316
926.931400 0.212045
927.172000 0.193512
927.412700 0.488237
927.653300 0.202335
927.894000 0.135996
928.134700 0.436225
928.375400 0.480127
928.616100 0.046794
928.856800 0.160707
929.097500 0.038889
929.338200 0.536529
929.578900 0.337737
929.819600 0.285561
930.060400 -0.055028
930.301100 0.221849
930.541900 0.004038
930.782600 0.025900
931.023400 0.068075
931.264200 0.418376
931.504900 0.412191
931.745700 0.166892
931.986500 0.609885
932.227300 0.453902
932.468100 0.168157
932.708900 0.214116
932.949800 0.022954
933.190600 0.245457
933.431400 0.449389
933.672300 0.103144
933.913100 0.464375
934.154000 0.556274
934.394900 0.009677
934.635800 0.220190
934.876600 0.150403
935.117500 0.840079
935.358400 0.113418
935.599300 3.389875
935.840300 0.101996
936.081200 0.444258
936.322100 -0.320322
936.563000 3.430881
936.804000 0.533520
937.044900 0.664443
937.285900 -0.092066
937.526900 3.301030
937.767800 0.140977
938.008800 0.177167
938.249800 0.618955
938.490800 0.292821
938.731800 0.105740
938.972800 0.293059
939.213800 0.153598
939.454900 0.681055
939.695900 3.206826
939.936900 0.592663
940.178000 -0.059644
940.419000 -0.046939
940.660100 3.370698
940.901200 0.073272
941.142200 -0.097757
941.383300 0.230965
941.624400 3.152288
941.865500 0.037574
942.106600 0.432227
942.347700 0.115196
942.588900 0.131293
942.830000 0.010995
943.071100 0.349174
943.312300 0.552622
943.553400 0.127818
943.794600 0.488307
944.035700 3.237041
944.276900 0.160956
944.518100 0.472448
944.759300 3.391641
945.000500 -0.333699
945.241700 3.346549
945.482900 3.272770
945.724100 0.205731
945.965300 0.745748
946.206600 -0.145629
946.447800 0.296921
946.689100 3.242293
946.930300 0.022195
947.171600 -0.156986
947.412800 3.171434
947.654100 3.168203
947.895400 0.150978
948.136700 3.245019
948.378000 0.136134
948.619300 0.406049
948.860600 3.265290
949.101900 0.602844
949.343300 0.162222
949.584600 0.238606
949.825900 3.104828
950.067300 0.312143
950.308600 2.975891
950.550000 0.180138
950.791400 -0.166678
951.032700 -0.294579
951.274100 0.107550
951.515500 1.083945
951.756900 0.590258
951.998300 0.130742
952.239800 0.656959
952.481200 -0.062757
952.722600 -0.185177
952.964000 0.595466
953.205500 0.024904
953.446900 -0.029836
953.688400 0.361615
953.929900 0.238681
954.171300 -1.129515
954.412800 0.277878
954.654300 0.566426
954.895800 0.333409
955.137300 2.840106
955.378800 3.111934
955.620300 0.032015
955.861800 0.400527
956.103400 0.218559
956.344900 1.043069
956.586500 3.093772
956.828000 3.280123
957.069600 3.067071
957.311100 1.726028
957.552700 1.310693
957.794300 0.551062
958.035900 2.840106
958.277500 -0.308410
958.519100 0.554098
958.760700 0.479147
959.002300 -0.046971
959.243900 -0.090720
959.485600 0.066685
959.727200 0.205230
959.968800 0.136799
960.210500 -0.200122
960.452200 -0.143344
960.693800 -0.092492
960.935500 -2.810904
961.177200 0.533871
961.418900 -0.006704
961.660600 3.042576
961.902300 0.230652
962.144000 2.673021
962.385700 2.791691
962.627400 -0.058200
962.869200 1.573203
963.110900 -0.088829
963.352700 -0.188872
963.594400 0.231296
963.836200 0.099198
964.077900 0.279462
964.319700 3.145818
964.561500 3.252853
964.803300 -0.183590
965.045100 0.149386
965.286900 2.791691
965.528700 -0.210394
965.770500 2.935507
966.012300 -0.265351
966.254200 0.271863
966.496000 0.068205
966.737900 3.206826
966.979700 0.180805
967.221600 2.833784
967.463400 0.392916
967.705300 0.605746
967.947200 -0.017056
968.189100 1.364417
968.431000 0.120651
968.672900 0.005237
968.914800 0.086206
969.156700 0.858584
969.398700 2.896526
969.640600 2.245513
969.882500 0.437688
970.124500 2.575188
970.366400 0.102305
970.608400 0.690787
970.850400 2.710117
971.092300 1.142233
971.334300 2.990339
971.576300 0.449571
971.818300 3.226342
972.060300 0.710775
972.302300 0.095242
972.544300 2.745075
972.786400 3.239550
973.028400 3.206826
973.270400 0.395922
973.512500 3.082426
973.754500 0.089611
973.996600 0.001321
974.238700 0.254402
974.480700 0.042794
974.722800 0.780499
974.964900 2.859739
975.207000 3.215373
975.449100 2.338456
975.691200 -0.156420
975.933300 2.853698
976.175500 -3.070038
976.417600 3.051153
976.659700 3.082785
976.901900 3.021603
977.144000 0.475730
977.386200 2.745075
977.628300 0.541857
977.870500 3.139249
978.112700 0.785475
978.354900 2.775974
978.597100 0.336405
978.839300 0.508725
979.081500 0.053072
979.323700 -3.309630
979.565900 -0.247989
979.808200 0.483534
980.050400 0.349547
980.292600 3.008600
980.534900 -0.079883
980.777100 2.971276
981.019400 2.752816
981.261700 0.198526
981.504000 0.753393
981.746200 1.845098
981.988500 3.013259
982.230800 0.107400
982.473100 0.078290
982.715500 1.138829
982.957800 2.799341
983.200100 2.990339
983.442400 2.610660
983.684800 0.082503
983.927100 0.399059
984.169500 2.985426
984.411800 2.902547
984.654200 -0.285682
984.896600 0.562957
985.139000 -0.918770
985.381400 0.966719
985.623800 0.671467
985.866200 -0.162610
986.108600 0.000000
986.351000 0.940686
986.593400 2.820201
986.835800 3.142702
987.078300 -0.015955
987.320700 -0.187883
987.563200 2.700704
987.805600 2.414973
988.048100 3.189209
988.290600 -0.116372
988.533100 0.000000
988.775600 2.980458
989.018000 3.115278
989.260500 3.086360
989.503100 0.000000
989.745600 -0.138599
989.988100 -2.698101
990.230600 1.349416
990.473200 0.340011
990.715700 3.257679
990.958200 2.523746
991.200800 2.745075
991.443400 -3.085291
991.685900 2.710117
991.928500 -3.291369
992.171100 1.012234
992.413700 0.465890
992.656300 1.082486
992.898900 -0.226433
993.141500 3.078457
993.384100 3.021603
993.626700 0.475724
993.869400 0.769196
994.112000 2.806180
994.354700 0.485816
994.597300 0.165684
994.840000 -2.851870
995.082600 -0.301748
995.325300 2.269513
995.568000 2.884795
995.810700 2.127105
996.053400 -0.325443
996.296100 2.827369
996.538800 3.042969
996.781500 3.171141
997.024200 2.049218
997.267000 0.245148
997.509700 0.469836
997.752400 2.768638
997.995200 3.051153
998.237900 2.701568
998.480700 0.343878
998.723500 0.000000
998.966200 0.964942
999.209000 0.000000
999.451800 3.003891
999.694600 0.346287
999.937400 2.318063
1000.180200 0.341575
1000.423000 0.791773
1000.665900 0.916722
1000.908700 2.396199
1001.151500 -0.394019
1001.394400 2.745075
1001.637200 -0.021569
1001.880100 -1.901277
1002.123000 2.840106
1002.365800 2.599883
1002.608700 2.357935
1002.851600 0.179285
1003.094500 0.626967
1003.337400 2.217484
1003.580300 -2.659916
1003.823200 -0.131569
1004.066100 2.945961
1004.309100 -0.264746
1004.552000 -0.164877
1004.794900 2.847573
1005.037900 1.585300
1005.280800 2.806180
1005.523800 0.319043
1005.766700 2.783904
1006.009700 0.026914
1006.252700 0.000000
1006.495700 2.812913
1006.738700 -2.974512
1006.981700 0.161574
1007.224700 2.653213
1007.467700 0.464532
1007.710700 2.610660
1007.953800 0.883677
1008.196800 2.736397
1008.439800 0.220834
1008.682900 0.200603
1008.925900 0.259385
1009.169000 0.312520
1009.412100 -2.390935
1009.655100 2.008600
1009.898200 3.108227
1010.141300 2.432969
1010.384400 -0.094373
1010.627500 2.550228
1010.870600 0.505328
1011.113700 3.086360
1011.356800 0.248493
1011.600000 1.591065
1011.843100 2.872156
1012.086300 -1.886491
1012.329400 2.907411
1012.572600 -2.900367
1012.815700 0.144417
1013.058900 0.000000
1013.302100 0.029379
1013.545200 0.262846
1013.788400 0.053997
1014.031600 0.000000
1014.274800 1.188691
1014.518000 3.161967
1014.761300 0.915085
1015.004500 0.000000
1015.247700 2.940516
1015.490900 -2.943989
1015.734200 0.111401
1015.977400 -0.461441
1016.220700 0.000000
1016.464000 2.853090
1016.707200 -0.449155
1016.950500 -0.319703
1017.193800 0.173949
1017.437100 2.562293
1017.680400 2.985426
1017.923700 2.975891
1018.167000 3.231724
1018.410300 0.184060
1018.653600 0.002124
1018.896900 0.711973
1019.140300 3.030195
1019.383600 2.662758
1019.627000 0.216852
1019.870300 2.465383
1020.113700 0.663727
1020.357100 2.575188
1020.600400 -0.355280
1020.843800 3.090258
1021.087200 3.287130
1021.330600 -2.864511
1021.574000 3.070776
1021.817400 0.000000
1022.060800 0.000000
1022.304200 0.000000
1022.547700 2.902003
1022.791100 2.432969
1023.034500 0.386402
