# Wavelength	Absorbance
197.780200 2.878522
197.984200 2.907949
198.188200 0.319985
198.392200 2.682145
198.596300 -0.138211
198.800300 2.318063
199.004400 2.918555
199.208500 2.866287
199.412600 2.776701
199.616800 2.768638
199.820900 1.863323
200.025100 2.877947
200.229200 2.463893
200.433400 3.008600
200.637600 2.745075
200.841800 2.902003
201.046100 3.008600
201.250300 0.907174
201.454600 3.220892
201.658900 0.122757
201.863100 2.994757
202.067400 2.760422
202.271800 0.114679
202.476100 2.896526
202.680500 -0.078966
202.884800 2.980458
203.089200 0.590584
203.293600 2.745075
203.498000 0.068186
203.702400 2.336460
203.906900 -0.599667
204.111300 0.000000
204.315800 0.169645
204.520300 3.062958
204.724800 -0.516093
204.929300 2.396199
205.133800 0.486317
205.338400 2.820201
205.543000 0.501188
205.747500 2.682145
205.952100 1.393751
206.156700 0.055536
206.361400 -2.444045
206.566000 2.187521
206.770600 3.168203
206.975300 -0.447473
207.180000 0.845098
207.384700 2.587711
207.589400 -2.741939
207.794100 2.480007
207.998900 2.622214
208.203600 3.152288
208.408400 0.465662
208.613200 2.820201
208.818000 -0.087654
209.022800 2.414973
209.227600 2.820201
209.432500 0.278539
209.637300 2.752816
209.842200 0.058938
210.047100 2.798651
210.252000 -1.004968
210.456900 3.086360
210.661800 3.055378
210.866800 3.104828
211.071800 0.346332
211.276700 2.907949
211.481700 2.736397
211.686700 -0.336959
211.891800 2.480007
212.096800 3.336260
212.301800 0.654893
212.506900 0.734112
212.712000 0.490001
212.917100 0.137144
213.122200 0.258832
213.327300 3.220892
213.532500 0.000000
213.737600 0.036036
213.942800 -1.491862
214.148000 2.631444
214.353200 -2.725095
214.558400 0.348713
214.763600 3.265290
214.968900 -0.092033
215.174100 3.104487
215.379400 0.000000
215.584700 2.846955
215.790000 0.263448
215.995300 -0.253517
216.200700 0.570652
216.406000 2.902003
216.611400 2.587711
216.816800 2.833784
217.022200 2.621176
217.227600 3.086360
217.433000 2.536558
217.638400 3.047275
217.843900 2.700704
218.049400 0.000000
218.254800 0.456855
218.460300 0.049082
218.665900 3.186674
218.871400 3.234517
219.076900 0.876396
219.282500 0.847003
219.488100 0.439820
219.693600 2.783904
219.899200 0.339245
220.104900 1.229304
220.310500 2.158362
220.516100 0.000000
220.721800 2.872156
220.927500 1.408387
221.133200 0.231757
221.338900 2.902003
221.544600 2.846955
221.750300 0.365329
221.956100 0.621854
222.161800 -0.451124
222.367600 -0.204650
222.573400 -0.081642
222.779200 -3.049993
222.985000 0.000000
223.190900 3.017451
223.396700 2.621176
223.602600 0.396929
223.808500 2.736397
224.014400 2.853698
224.220300 2.333447
224.426200 2.719331
224.632200 2.727541
224.838100 0.261011
225.044100 0.539269
225.250100 -0.356107
225.456100 -0.296177
225.662100 0.453480
225.868100 2.127105
226.074200 0.595031
226.280200 -0.602060
226.486300 2.846955
226.692400 0.000000
226.898500 0.207087
227.104600 0.257040
227.310700 3.111934
227.516900 0.501346
227.723000 -1.074448
227.929200 3.252853
228.135400 0.599145
228.341600 2.622214
228.547800 0.400656
228.754100 3.003891
228.960300 2.245513
229.166600 0.000000
229.372900 2.907949
229.579100 -0.135179
229.785500 2.791691
229.991800 -2.072407
230.198100 1.019387
230.404500 1.963788
230.610800 3.003891
230.817200 -2.845098
231.023600 0.852995
231.230000 2.683047
231.436400 0.394134
231.642900 2.718502
231.849300 2.791691
232.055800 2.008600
232.262300 1.242696
232.468800 1.959041
232.675300 -0.192748
232.881800 2.599883
233.088400 0.137620
233.294900 2.550228
233.501500 2.902003
233.708100 -2.650308
233.914700 2.710963
234.121300 -1.944483
234.327900 0.541173
234.534600 2.080085
234.741300 0.339450
234.947900 2.736397
235.154600 3.406199
235.361300 3.122544
235.568000 0.489261
235.774800 2.662758
235.981500 2.562293
236.188300 0.000000
236.395100 0.181340
236.601800 0.000000
236.808700 2.960946
237.015500 2.961421
237.222300 2.853698
237.429200 3.265290
237.636000 0.238830
237.842900 1.851258
238.049800 2.918555
238.256700 2.653213
238.463600 3.063333
238.670600 2.970812
238.877500 -0.107780
239.084500 -2.939020
239.291500 0.596932
239.498500 2.245513
239.705500 2.643453
239.912500 1.845098
240.119500 1.690196
240.326600 -0.459976
240.533700 -3.170555
240.740700 2.621176
240.947800 0.514668
241.154900 3.059185
241.362100 1.282152
241.569200 -0.336959
241.776400 -0.074588
241.983500 2.783904
242.190700 1.380751
242.397900 -2.959518
242.605100 2.537819
242.812400 2.587711
243.019600 3.242293
243.226900 2.710117
243.434100 0.171345
243.641400 2.736397
243.848700 0.639925
244.056000 -2.235528
244.263400 2.653213
244.470700 1.045359
244.678100 -0.094244
244.885400 -0.023947
245.092800 2.682145
245.300200 2.357935
245.507600 3.330008
245.715100 0.590584
245.922500 3.026125
246.130000 1.230449
246.337500 1.146128
246.544900 2.396199
246.752400 3.362859
246.960000 1.127818
247.167500 0.682619
247.375000 0.000000
247.582600 3.025715
247.790200 -0.973128
247.997800 0.740158
248.205400 1.083949
248.413000 -0.291614
248.620600 2.727541
248.828300 0.425115
249.035900 0.447401
249.243600 3.093772
249.451300 3.282396
249.659000 1.155141
249.866700 3.168203
250.074500 0.192918
250.282200 3.189490
250.490000 3.021603
250.697800 2.846955
250.905600 -0.651612
251.113400 0.204835
251.321200 -0.053184
251.529000 2.008600
251.736900 3.177536
251.944700 0.711003
252.152600 0.264693
252.360500 2.710117
252.568400 -0.448168
252.776300 2.397940
252.984300 2.902003
253.192200 2.985426
253.400200 2.935003
253.608200 2.599883
253.816200 3.282396
254.024200 2.872739
254.232200 -0.592348
254.440200 0.000000
254.648300 -0.180013
254.856400 2.701568
255.064400 -0.418540
255.272500 3.097604
255.480600 0.660784
255.688800 -1.826075
255.896900 -0.181726
256.105100 0.701683
256.313200 2.752816
256.521400 -0.004501
256.729600 0.097320
256.937800 0.542024
257.146000 -0.139784
257.354300 -2.558709
257.562500 3.204120
257.770800 -2.707570
257.979100 0.324942
258.187400 -0.224262
258.395700 3.082785
258.604000 3.034628
258.812400 0.974595
259.020700 3.026125
259.229100 0.223368
259.437500 2.975891
259.645900 3.198382
259.854300 0.434477
260.062700 0.007547
260.271100 0.958418
260.479600 3.097604
260.688100 -0.107953
260.896500 3.252853
261.105000 2.089905
261.313500 2.621176
261.522100 3.142702
261.730600 2.945961
261.939200 -0.286991
262.147700 0.875951
262.356300 2.745075
262.564900 2.536558
262.773500 2.907411
262.982200 0.003868
263.190800 -2.707570
263.399500 0.874387
263.608100 3.039017
263.816800 3.034628
264.025500 2.396199
264.234200 2.158362
264.442900 -0.896312
264.651700 0.055817
264.860400 2.662758
265.069200 3.051153
265.278000 2.990339
265.486800 0.325584
265.695600 -0.565948
265.904400 0.208912
266.113300 2.599883
266.322100 3.063333
266.531000 2.294466
266.739900 2.294466
266.948800 3.125806
267.157700 0.474862
267.366600 1.657438
267.575500 0.426429
267.784500 2.550228
267.993500 2.994757
268.202400 2.970812
268.411400 3.021603
268.620500 2.761176
268.829500 -0.257449
269.038500 2.123852
269.247600 0.353725
269.456600 -0.809626
269.665700 0.071356
269.874800 2.907411
270.083900 0.811228
270.293100 -2.332438
270.502200 0.590584
270.711400 -0.562204
270.920500 -0.208003
271.129700 2.985426
271.338900 0.880082
271.548100 2.691965
271.757300 0.992768
271.966600 2.890421
272.175800 0.132724
272.385100 1.734640
272.594400 1.572872
272.803700 0.296508
273.013000 2.799341
273.222300 2.994757
273.431600 1.051301
273.641000 3.209783
273.850400 -0.409358
274.059700 1.119886
274.269100 3.209515
274.478500 -0.107195
274.688000 0.255159
274.897400 2.866287
275.106900 1.591065
275.316300 3.055378
275.525800 0.097655
275.735300 0.000000
275.944800 2.965672
276.154300 2.662758
276.363900 -0.105097
276.573400 2.840106
276.783000 0.851729
276.992600 2.846955
277.202200 3.047275
277.411800 2.587711
277.621400 -0.279780
277.831000 3.118595
278.040700 3.177536
278.250300 2.820201
278.460000 2.935507
278.669700 2.980458
278.879400 -0.921523
279.089100 0.062556
279.298900 -0.128117
279.508600 0.581671
279.718400 0.714061
279.928100 0.000000
280.137900 3.215373
280.347700 2.632457
280.557600 2.960946
280.767400 3.039017
280.977200 0.242747
281.187100 -3.206016
281.397000 3.089905
281.606900 0.000000
281.816800 0.819850
282.026700 2.357935
282.236600 0.459332
282.446600 2.924279
282.656500 -2.113943
282.866500 0.162281
283.076500 -0.137215
283.286500 3.115278
283.496500 3.030600
283.706500 -0.062005
283.916600 0.258832
284.126600 0.845098
284.336700 2.966142
284.546800 -0.557174
284.756900 3.025715
284.967000 2.896526
285.177100 3.042969
285.387300 0.000000
285.597400 3.017033
285.807600 -0.245807
286.017800 3.294246
286.228000 0.000000
286.438200 0.397647
286.648400 0.057992
286.858700 0.614982
287.068900 2.760422
287.279200 -0.047361
287.489500 0.129416
287.699800 0.085247
287.910100 2.621176
288.120400 0.229049
288.330800 2.220108
288.541100 1.955014
288.751500 -0.018045
288.961900 -0.004645
289.172300 -2.650308
289.382700 0.599145
289.593100 -0.190520
289.803500 -2.235528
290.014000 0.421749
290.224500 3.059185
290.434900 0.000000
290.645400 -0.061194
290.855900 0.045757
291.066500 0.387973
291.277000 0.706866
291.487500 0.942563
291.698100 2.768638
291.908700 2.338456
292.119300 3.059185
292.329900 0.114573
292.540500 2.728354
292.751100 2.956168
292.961800 -0.602060
293.172400 0.727389
293.383100 0.000000
293.593800 2.994757
293.804500 2.495544
294.015200 0.255363
294.226000 0.000000
294.436700 0.513783
294.647500 2.866287
294.858200 0.105401
295.069000 3.055378
295.279800 0.363484
295.490600 -2.988559
295.701500 0.726746
295.912300 3.082785
296.123200 0.473941
296.334000 2.719331
296.544900 1.918869
296.755800 3.220892
296.966700 2.872156
297.177700 2.945961
297.388600 2.935003
297.599500 2.269513
297.810500 0.557504
298.021500 -0.056797
298.232500 0.176547
298.443500 -1.204120
298.654500 3.177536
298.865600 3.125806
299.076600 2.020154
299.287700 0.000000
299.498800 3.201124
299.709900 2.902003
299.921000 0.192730
300.132100 3.038620
300.343200 0.159520
300.554400 2.769377
300.765500 2.853698
300.976700 0.000000
301.187900 0.396917
301.399100 2.813581
301.610300 0.113170
301.821500 3.364739
302.032800 0.475078
302.244100 3.017451
302.455300 0.812047
302.666600 0.455878
302.877900 3.226342
303.089200 2.357935
303.300600 0.520474
303.511900 0.412103
303.723300 0.079181
303.934600 0.255386
304.146000 0.845098
304.357400 -0.125739
304.568800 2.846955
304.780300 3.192289
304.991700 2.784617
305.203100 2.271842
305.414600 0.548075
305.626100 2.294466
305.837600 0.396984
306.049100 2.775974
306.260600 3.051153
306.472200 2.245513
306.683700 2.945961
306.895300 2.575188
307.106900 0.093422
307.318400 3.034628
307.530100 3.165244
307.741700 2.806180
307.953300 0.827086
308.165000 0.000000
308.376600 1.227863
308.588300 0.683584
308.800000 3.034227
309.011700 1.389034
309.223400 0.109609
309.435100 2.450249
309.646900 -0.017829
309.858600 0.471797
310.070400 -0.002574
310.282200 -0.788370
310.494000 3.287130
310.705800 3.168203
310.917600 1.102792
311.129500 2.840106
311.341300 3.296446
311.553200 3.180413
311.765100 3.139249
311.977000 0.810264
312.188900 -0.035517
312.400800 0.341291
312.612700 3.012837
312.824700 3.292034
313.036600 0.117178
313.248600 3.332034
313.460600 1.336808
313.672600 0.667626
313.884600 3.086360
314.096700 2.599883
314.308700 0.558456
314.520800 -0.040057
314.732800 0.927106
314.944900 3.146128
315.157000 0.830105
315.369200 0.154390
315.581300 3.082785
315.793400 2.653213
316.005600 3.226342
316.217700 0.795291
316.429900 1.049503
316.642100 0.635448
316.854300 3.093772
317.066600 3.463445
317.278800 3.417139
317.491100 1.154862
317.703300 0.892215
317.915600 1.351963
318.127900 3.445760
318.340200 3.097604
318.552500 3.255273
318.764900 1.476491
318.977200 0.305973
319.189600 3.030195
319.401900 0.457908
319.614300 0.739869
319.826700 0.434134
320.039200 3.358886
320.251600 0.595842
320.464000 3.336260
320.676500 1.602532
320.889000 2.465383
321.101400 0.741434
321.313900 3.310268
321.526500 3.516800
321.739000 3.376577
321.951500 0.590378
322.164100 3.132580
322.376600 0.901738
322.589200 3.362859
322.801800 1.501693
323.014400 3.360972
323.227000 1.956936
323.439700 3.437433
323.652300 3.471292
323.865000 3.374748
324.077700 1.613626
324.290400 3.310268
324.503100 3.378580
324.715800 0.674060
324.928500 3.425697
325.141200 3.384174
325.354000 3.583765
325.566800 0.979941
325.779600 2.134050
325.992400 3.314710
326.205200 3.542576
326.418000 3.474362
326.630800 0.952085
326.843700 3.659250
327.056600 0.871544
327.269400 2.814913
327.482300 1.199551
327.695200 0.503439
327.908200 0.302379
328.121100 3.453930
328.334000 0.625730
328.547000 3.636688
328.760000 3.502700
328.973000 1.916225
329.186000 3.564311
329.399000 3.445915
329.612000 0.870571
329.825100 1.822396
330.038100 1.299005
330.251200 2.174932
330.464300 3.658298
330.677400 3.635484
330.890500 0.822146
331.103600 0.722329
331.316700 0.453322
331.529900 3.658298
331.743100 0.480075
331.956200 3.661339
332.169400 1.751762
332.382600 0.454923
332.595900 3.740600
332.809100 3.604766
333.022300 3.595606
333.235600 1.026013
333.448900 0.544308
333.662200 3.609381
333.875500 3.666331
334.088800 3.518251
334.302100 1.330587
334.515400 3.647089
334.728800 2.243931
334.942200 1.068247
335.155500 3.580241
335.368900 1.471307
335.582300 0.582833
335.795800 3.676968
336.009200 3.743823
336.222700 3.666237
336.436100 1.315325
336.649600 3.795949
336.863100 0.565127
337.076600 3.787035
337.290100 3.741388
337.503600 0.882517
337.717200 1.001135
337.930700 3.722716
338.144300 0.831647
338.357900 3.656290
338.571500 3.715669
338.785100 3.703205
338.998700 3.739731
339.212400 0.920996
339.426000 3.110084
339.639700 3.667266
339.853300 3.765594
340.067000 0.743565
340.280700 3.765594
340.494500 3.790074
340.708200 3.745543
340.921900 3.796644
341.135700 3.715669
341.349500 3.731266
341.563300 1.546299
341.777100 3.818094
341.990900 0.986068
342.204700 3.816042
342.418500 1.261777
342.632400 3.830460
342.846300 0.879645
343.060100 3.693023
343.274000 0.875646
343.487900 3.871748
343.701900 1.021398
343.915800 3.793022
344.129700 0.799893
344.343700 3.778006
344.557700 0.907736
344.771700 0.684864
344.985700 2.516562
345.199700 3.834484
345.413700 1.258606
345.627700 1.373399
345.841800 3.870521
346.055900 3.854124
346.269900 3.868644
346.484000 3.898615
346.698100 3.825686
346.912300 2.187582
347.126400 2.079937
347.340600 3.899164
347.554700 1.510352
347.768900 2.060247
347.983100 1.609619
348.197300 3.889246
348.411500 3.880871
348.625700 3.866760
348.840000 3.898615
349.054200 1.200991
349.268500 3.952889
349.482800 3.888011
349.697100 0.709713
349.911400 0.938812
350.125700 0.852525
350.340000 1.432719
350.554400 1.315693
350.768700 1.380052
350.983100 0.901623
351.197500 3.889246
351.411900 1.651999
351.626300 3.954918
351.840700 1.013642
352.055200 3.931966
352.269600 3.959471
352.484100 1.068327
352.698600 1.431364
352.913100 3.896857
353.127600 0.977151
353.342100 3.948266
353.556600 1.100397
353.771200 4.007534
353.985800 3.943643
354.200300 1.695370
354.414900 3.981093
354.629500 0.736587
354.844100 1.758745
355.058800 3.971879
355.273400 3.971369
355.488100 1.483988
355.702700 2.046965
355.917400 3.938920
356.132100 0.965535
356.346800 0.878196
356.561500 4.004364
356.776300 2.148253
356.991000 4.003891
357.205800 3.987264
357.420600 3.988202
357.635300 3.982045
357.850100 0.779568
358.065000 2.593995
358.279800 1.397350
358.494600 0.926571
358.709500 4.012879
358.924300 3.975799
359.139200 1.060123
359.354100 1.263108
359.569000 1.400079
359.783900 3.987264
359.998900 3.957464
360.213800 4.019947
360.428800 1.837089
360.643800 2.319740
360.858700 3.960946
361.073700 1.456849
361.288800 2.004716
361.503800 1.356206
361.718800 3.995196
361.933900 4.009323
362.148900 4.016866
362.364000 3.994713
362.579100 4.062845
362.794200 4.002986
363.009300 4.072250
363.224500 4.031206
363.439600 1.691842
363.654800 4.034989
363.869900 1.303070
364.085100 1.330638
364.300300 4.010681
364.515500 1.573430
364.730800 4.062845
364.946000 4.055608
365.161200 1.515571
365.376500 4.086360
365.591800 1.281018
365.807100 4.020403
366.022400 1.266867
366.237700 4.078022
366.453000 2.004619
366.668400 1.244277
366.883700 1.587962
367.099100 4.077622
367.314500 4.085968
367.529900 1.061538
367.745300 1.116855
367.960700 4.089375
368.176100 1.198755
368.391600 4.101850
368.607000 1.551106
368.822500 4.111901
369.038000 4.150173
369.253500 4.100405
369.469000 1.042014
369.684500 1.901446
369.900100 4.150787
370.115600 0.923041
370.331200 1.390277
370.546800 4.104009
370.762400 4.131266
370.978000 4.107990
371.193600 1.415042
371.409200 4.124798
371.624900 0.948787
371.840500 4.181129
372.056200 1.141002
372.271900 4.101128
372.487600 4.180183
372.703300 4.129915
372.919000 1.288408
373.134800 4.137671
373.350500 1.301765
373.566300 1.129741
373.782000 2.762769
373.997800 2.506740
374.213600 4.167937
374.429400 4.167613
374.645300 1.276511
374.861100 4.167317
375.077000 4.192735
375.292800 1.706658
375.508700 1.146288
375.724600 1.837674
375.940500 1.258886
376.156400 4.224455
376.372400 2.006839
376.588300 1.635468
376.804300 1.676011
377.020300 4.247581
377.236200 1.814281
377.452200 4.269816
377.668200 2.863680
377.884300 1.290942
378.100300 0.964346
378.316400 1.708680
378.532400 1.545933
378.748500 4.301356
378.964600 1.187622
379.180700 4.308394
379.396800 1.908255
379.612900 4.277861
379.829100 4.308394
380.045200 1.167826
380.261400 4.315991
380.477600 1.813935
380.693800 1.869369
380.910000 1.391748
381.126200 4.287174
381.342400 4.319959
381.558700 1.105355
381.774900 1.956168
381.991200 1.207756
382.207500 4.314668
382.423800 2.301627
382.640100 4.341553
382.856400 4.341336
383.072800 1.321679
383.289100 4.351042
383.505500 1.728003
383.721900 1.456126
383.938200 1.433136
384.154600 1.620005
384.371100 1.648470
384.587500 2.113263
384.803900 4.366890
385.020400 1.322085
385.236800 4.356332
385.453300 1.340885
385.669800 1.482767
385.886300 4.360745
386.102800 2.027681
386.319400 1.394993
386.535900 1.839218
386.752500 1.718335
386.969000 4.367673
387.185600 1.433728
387.402200 1.692640
387.618800 1.367149
387.835500 1.920685
388.052100 2.473238
388.268700 1.477258
388.485400 1.584534
388.702100 4.414907
388.918800 4.402382
389.135500 4.421044
389.352200 2.286439
389.568900 1.424907
389.785600 1.199446
390.002400 1.018772
390.219200 1.099288
390.435900 1.431735
390.652700 1.580512
390.869500 1.488044
391.086300 4.433866
391.303200 1.641236
391.520000 1.313384
391.736900 4.423459
391.953700 1.557045
392.170600 1.686873
392.387500 1.087542
392.604400 1.336686
392.821300 1.237740
393.038300 1.228492
393.255200 1.317660
393.472200 4.475352
393.689100 1.203901
393.906100 1.210876
394.123100 2.632865
394.340100 1.456676
394.557200 1.006418
394.774200 1.046172
394.991200 1.043640
395.208300 1.580425
395.425400 1.317011
395.642500 1.304171
395.859600 1.133701
396.076700 1.153822
396.293800 1.037150
396.510900 0.960787
396.728100 1.142293
396.945300 1.117850
397.162400 0.845531
397.379600 1.193998
397.596800 1.034027
397.814000 0.892947
398.031300 1.338999
398.248500 1.191828
398.465800 0.992301
398.683000 1.059772
398.900300 1.071723
399.117600 1.060803
399.334900 0.934103
399.552200 1.024955
399.769600 0.817525
399.986900 0.968269
400.204300 1.016333
400.421600 0.949783
400.639000 0.927969
400.856400 0.941668
401.073800 1.007585
401.291200 0.862038
401.508700 1.347179
401.726100 0.875126
401.943600 0.960608
402.161000 0.803612
402.378500 0.884051
402.596000 0.860884
402.813500 0.825712
403.031000 0.755547
403.248600 0.888306
403.466100 0.815792
403.683700 0.741496
403.901300 0.791447
404.118900 0.756524
404.336500 0.693867
404.554100 0.738647
404.771700 0.746003
404.989300 0.766335
405.207000 0.750384
405.424600 0.672559
405.642300 0.818180
405.860000 0.686739
406.077700 0.781388
406.295400 0.772925
406.513100 0.850669
406.730900 0.693334
406.948600 0.691428
407.166400 0.636655
407.384200 0.712575
407.602000 0.673011
407.819800 0.681281
408.037600 0.711627
408.255400 0.687973
408.473300 0.571151
408.691100 0.668374
408.909000 0.710878
409.126900 0.700607
409.344800 0.688456
409.562700 0.608681
409.780600 0.700634
409.998500 0.662559
410.216500 0.582945
410.434400 0.622780
410.652400 0.586719
410.870400 0.603987
411.088400 0.622992
411.306400 0.622447
411.524400 0.570528
411.742400 0.605437
411.960500 0.632872
412.178500 0.540596
412.396600 0.541772
412.614700 0.537086
412.832800 0.539702
413.050900 0.582867
413.269000 0.561741
413.487100 0.537976
413.705300 0.566904
413.923400 0.575473
414.141600 0.625826
414.359800 0.508985
414.578000 0.531602
414.796200 0.459507
415.014400 0.550815
415.232600 0.589768
415.450900 0.530558
415.669200 0.492137
415.887400 0.583541
416.105700 0.589729
416.324000 0.531287
416.542300 0.433386
416.760600 0.478778
416.979000 0.505138
417.197300 0.545498
417.415700 0.495217
417.634100 0.443910
417.852400 0.445392
418.070800 0.560811
418.289300 0.489723
418.507700 0.503481
418.726100 0.461966
418.944600 0.415046
419.163000 0.455507
419.381500 0.505777
419.600000 0.476634
419.818500 0.462317
420.037000 0.467404
420.255500 0.495979
420.474100 0.470889
420.692600 0.514467
420.911200 0.466328
421.129800 0.496195
421.348300 0.445349
421.566900 0.445401
421.785600 0.430920
422.004200 0.450336
422.222800 0.451086
422.441500 0.497549
422.660100 0.434544
422.878800 0.422485
423.097500 0.427994
423.316200 0.436762
423.534900 0.422946
423.753600 0.439856
423.972400 0.451282
424.191100 0.463458
424.409900 0.482237
424.628700 0.446423
424.847500 0.449473
425.066300 0.407103
425.285100 0.450098
425.503900 0.396593
425.722800 0.424921
425.941600 0.378734
426.160500 0.435498
426.379300 0.399418
426.598200 0.432440
426.817100 0.434294
427.036100 0.401707
427.255000 0.448484
427.473900 0.423011
427.692900 0.431447
427.911800 0.409946
428.130800 0.436469
428.349800 0.442399
428.568800 0.456404
428.787800 0.400716
429.006800 0.412305
429.225900 0.357968
429.444900 0.402966
429.664000 0.378255
429.883100 0.433856
430.102200 0.444297
430.321300 0.426095
430.540400 0.410970
430.759500 0.378771
430.978700 0.391631
431.197800 0.401881
431.417000 0.352829
431.636200 0.400832
431.855300 0.382783
432.074500 0.411774
432.293800 0.399096
432.513000 0.422244
432.732200 0.384290
432.951500 0.431795
433.170700 0.369386
433.390000 0.366309
433.609300 0.424431
433.828600 0.435407
434.047900 0.401531
434.267300 0.461269
434.486600 0.397060
434.705900 0.400382
434.925300 0.379209
435.144700 0.384904
435.364100 0.398779
435.583500 0.371998
435.802900 0.367247
436.022300 0.424843
436.241800 0.384195
436.461200 0.371235
436.680700 0.390146
436.900100 0.408165
437.119600 0.353317
437.339100 0.417698
437.558600 0.393483
437.778200 0.403987
437.997700 0.419075
438.217300 0.385572
438.436800 0.420762
438.656400 0.408890
438.876000 0.418413
439.095600 0.378350
439.315200 0.413668
439.534800 0.396794
439.754500 0.441639
439.974100 0.386959
440.193800 0.458282
440.413500 0.438287
440.633100 0.404237
440.852800 0.433582
441.072500 0.418187
441.292300 0.416771
441.512000 0.422868
441.731800 0.435341
441.951500 0.398220
442.171300 0.398550
442.391100 0.413795
442.610900 0.361714
442.830700 0.403394
443.050500 0.458694
443.270300 0.382612
443.490200 0.403508
443.710100 0.414220
443.929900 0.409711
444.149800 0.388814
444.369700 0.442048
444.589600 0.424046
444.809500 0.455921
445.029500 0.408117
445.249400 0.427410
445.469400 0.426583
445.689400 0.423350
445.909300 0.423648
446.129300 0.468662
446.349300 0.428969
446.569400 0.424302
446.789400 0.470329
447.009400 0.456220
447.229500 0.431969
447.449600 0.424002
447.669600 0.426480
447.889700 0.422685
448.109800 0.437400
448.330000 0.403012
448.550100 0.456315
448.770200 0.462492
448.990400 0.445004
449.210600 0.498590
449.430700 0.451745
449.650900 0.525721
449.871100 0.444788
450.091400 0.413938
450.311600 0.457653
450.531800 0.489311
450.752100 0.459890
450.972400 0.443111
451.192600 0.461251
451.412900 0.466245
451.633200 0.469992
451.853500 0.536775
452.073900 0.485407
452.294200 0.500980
452.514600 0.465568
452.734900 0.453713
452.955300 0.438033
453.175700 0.454440
453.396100 0.524206
453.616500 0.508326
453.836900 0.478633
454.057400 0.551401
454.277800 0.474861
454.498300 0.511979
454.718800 0.534801
454.939300 0.533296
455.159700 0.500510
455.380300 0.492443
455.600800 0.532164
455.821300 0.480600
456.041900 0.569381
456.262400 0.517086
456.483000 0.537354
456.703600 0.498839
456.924200 0.529909
457.144800 0.561117
457.365400 0.534999
457.586000 0.545122
457.806700 0.530613
458.027400 0.547751
458.248000 0.529055
458.468700 0.566887
458.689400 0.549856
458.910100 0.567259
459.130800 0.577164
459.351600 0.523727
459.572300 0.546917
459.793100 0.581909
460.013800 0.575853
460.234600 0.585887
460.455400 0.568223
460.676200 0.623288
460.897000 0.574591
461.117800 0.553472
461.338700 0.574693
461.559500 0.599727
461.780400 0.579536
462.001300 0.612316
462.222200 0.583069
462.443100 0.605965
462.664000 0.667425
462.884900 0.607735
463.105900 0.636770
463.326800 0.613353
463.547800 0.646500
463.768700 0.629510
463.989700 0.621467
464.210700 0.656676
464.431700 0.716947
464.652800 0.634205
464.873800 0.652532
465.094800 0.641310
465.315900 0.686115
465.537000 0.646172
465.758100 0.693753
465.979200 0.699939
466.200300 0.691361
466.421400 0.727841
466.642500 0.699912
466.863700 0.640661
467.084800 0.752433
467.306000 0.682516
467.527200 0.710182
467.748400 0.665334
467.969600 0.629111
468.190800 0.680111
468.412000 0.832548
468.633300 0.708425
468.854500 0.732624
469.075800 0.728312
469.297000 0.777817
469.518300 0.788504
469.739600 0.814594
469.961000 0.812317
470.182300 0.757797
470.403600 0.793076
470.625000 0.852687
470.846300 0.821167
471.067700 0.731215
471.289100 0.837240
471.510500 0.759402
471.731900 0.700386
471.953300 0.769260
472.174800 0.971122
472.396200 0.848236
472.617700 0.953671
472.839100 0.782043
473.060600 0.764957
473.282100 0.780503
473.503600 0.853088
473.725100 0.745471
473.946700 0.834354
474.168200 0.865384
474.389800 0.760578
474.611300 0.824861
474.832900 0.863551
475.054500 0.880525
475.276100 0.831675
475.497700 0.787710
475.719300 0.808726
475.941000 0.900977
476.162600 0.931729
476.384300 0.955624
476.606000 0.929227
476.827700 0.907876
477.049400 0.965059
477.271100 0.953041
477.492800 0.847125
477.714500 0.935732
477.936300 0.893349
478.158000 0.855009
478.379800 0.904445
478.601600 1.027097
478.823400 0.897846
479.045200 0.974398
479.267000 0.826651
479.488800 1.011902
479.710700 0.881695
479.932500 0.974442
480.154400 0.910882
480.376300 0.965436
480.598200 0.983214
480.820100 0.939558
481.042000 1.105764
481.263900 1.051597
481.485900 0.932807
481.707800 0.979658
481.929800 1.017452
482.151700 0.964426
482.373700 1.092014
482.595700 1.032064
482.817700 0.955425
483.039800 1.019799
483.261800 1.149897
483.483800 1.083023
483.705900 1.170011
483.928000 1.277612
484.150100 0.966887
484.372100 1.085981
484.594300 1.097015
484.816400 1.042110
485.038500 0.949590
485.260600 0.967304
485.482800 1.155073
485.705000 1.067593
485.927100 1.073443
486.149300 1.109434
486.371500 1.121047
486.593700 1.122313
486.816000 1.121395
487.038200 1.139661
487.260500 1.161509
487.482700 1.069750
487.705000 1.105636
487.927300 1.163440
488.149600 1.389290
488.371900 1.059925
488.594200 1.137793
488.816500 1.416534
489.038900 1.021434
489.261200 1.195226
489.483600 1.389091
489.706000 1.233970
489.928400 1.246123
490.150800 1.198651
490.373200 1.265486
490.595600 1.382227
490.818000 1.223965
491.040500 1.085096
491.263000 1.098699
491.485400 1.432907
491.707900 1.182705
491.930400 1.200348
492.152900 1.188556
492.375500 1.210950
492.598000 1.216789
492.820500 1.248711
493.043100 1.352544
493.265700 1.160822
493.488200 1.131613
493.710800 1.243550
493.933400 1.902115
494.156100 1.242517
494.378700 1.190384
494.601300 1.486328
494.824000 1.324068
495.046600 1.400466
495.269300 1.323608
495.492000 1.497557
495.714700 1.105521
495.937400 1.283800
496.160100 1.166199
496.382900 1.226814
496.605600 1.339298
496.828400 1.170141
497.051100 1.416433
497.273900 1.419800
497.496700 1.445994
497.719500 1.415488
497.942300 1.365260
498.165200 1.451641
498.388000 1.620377
498.610900 1.323232
498.833700 1.257124
499.056600 1.273061
499.279500 1.353676
499.502400 1.294358
499.725300 1.299948
499.948200 1.287228
500.171200 1.813866
500.394100 1.351463
500.617100 1.497298
500.840000 1.236755
501.063000 1.308411
501.286000 1.277505
501.509000 1.252666
501.732000 1.588924
501.955100 1.415820
502.178100 1.334644
502.401200 1.139813
502.624200 1.418334
502.847300 1.373116
503.070400 1.373882
503.293500 1.626266
503.516600 1.453250
503.739700 1.364821
503.962800 1.218357
504.186000 1.394047
504.409200 1.436144
504.632300 1.313477
504.855500 1.872098
505.078700 1.376586
505.301900 1.378405
505.525100 1.492749
505.748300 1.286561
505.971600 1.324979
506.194800 1.707262
506.418100 1.173227
506.641400 1.257128
506.864700 1.410989
507.088000 1.311391
507.311300 1.354972
507.534600 1.240216
507.757900 1.313385
507.981300 1.333472
508.204600 1.222801
508.428000 1.589067
508.651400 1.730021
508.874800 1.335043
509.098200 1.301162
509.321600 1.345289
509.545000 1.328782
509.768500 1.655654
509.991900 1.265100
510.215400 1.237633
510.438800 1.248666
510.662300 1.419568
510.885800 1.391543
511.109300 1.194204
511.332900 1.363680
511.556400 1.478443
511.779900 1.604994
512.003500 1.291051
512.227000 1.382355
512.450600 1.206681
512.674200 1.268054
512.897800 1.384574
513.121400 1.449079
513.345100 1.146881
513.568700 1.211348
513.792300 1.547430
514.016000 1.128171
514.239700 1.439932
514.463400 1.053003
514.687100 1.607107
514.910800 1.167960
515.134500 1.472696
515.358200 1.125439
515.581900 1.444837
515.805700 1.195786
516.029500 1.160048
516.253200 1.061540
516.477000 1.438964
516.700800 1.366101
516.924600 1.071247
517.148500 1.577987
517.372300 1.295982
517.596100 1.181484
517.820000 1.344640
518.043900 1.372900
518.267700 1.168137
518.491600 1.352302
518.715500 1.218297
518.939500 1.256569
519.163400 1.455650
519.387300 1.214951
519.611300 1.519959
519.835200 1.321106
520.059200 1.653763
520.283200 1.275795
520.507200 1.304768
520.731200 1.503636
520.955200 1.163796
521.179200 1.198184
521.403300 1.095825
521.627300 1.365042
521.851400 1.034330
522.075500 1.422130
522.299600 1.314868
522.523700 1.257284
522.747800 1.085636
522.971900 1.419450
523.196000 1.168046
523.420200 1.285036
523.644300 1.166418
523.868500 1.061445
524.092700 1.132362
524.316900 1.069271
524.541100 1.087526
524.765300 0.980766
524.989500 1.151689
525.213800 1.155472
525.438000 1.119083
525.662300 1.041570
525.886500 1.103467
526.110800 1.266480
526.335100 1.205810
526.559400 1.091080
526.783700 0.977353
527.008100 1.185713
527.232400 1.024719
527.456800 1.073246
527.681100 1.480070
527.905500 1.027345
528.129900 1.045161
528.354300 1.186774
528.578700 0.994450
528.803100 1.016625
529.027600 0.969423
529.252000 1.144564
529.476500 0.990842
529.700900 1.061801
529.925400 0.948053
530.149900 1.129267
530.374400 0.966479
530.598900 1.091892
530.823400 0.933858
531.048000 1.155715
531.272500 0.962347
531.497100 0.885815
531.721700 0.946023
531.946200 0.791696
532.170800 1.041496
532.395400 0.890282
532.620000 0.965220
532.844700 1.092531
533.069300 0.916798
533.294000 1.014997
533.518600 0.917261
533.743300 1.060421
533.968000 0.960327
534.192700 0.940890
534.417400 0.854828
534.642100 0.924149
534.866800 0.901594
535.091600 0.898002
535.316300 0.882748
535.541100 0.887204
535.765900 0.821963
535.990700 0.804077
536.215500 0.940049
536.440300 0.953487
536.665100 0.777783
536.889900 0.925082
537.114800 0.778988
537.339600 0.897173
537.564500 0.816298
537.789400 0.885527
538.014300 0.713155
538.239200 0.832345
538.464100 0.823768
538.689000 0.812546
538.913900 0.811481
539.138900 0.747153
539.363800 0.729621
539.588800 0.852419
539.813800 0.771750
540.038800 0.885425
540.263800 0.747987
540.488800 0.729283
540.713800 0.660882
540.938900 0.748833
541.163900 0.738860
541.389000 0.765893
541.614000 0.720296
541.839100 0.702570
542.064200 0.674335
542.289300 0.759109
542.514400 0.714048
542.739600 0.695878
542.964700 0.699349
543.189900 0.653025
543.415000 0.761776
543.640200 0.651143
543.865400 0.762601
544.090600 0.679377
544.315800 0.686705
544.541000 0.653625
544.766200 0.703190
544.991500 0.665412
545.216700 0.663663
545.442000 0.654337
545.667300 0.667882
545.892600 0.610049
546.117900 0.689130
546.343200 0.643512
546.568500 0.595386
546.793800 0.592176
547.019200 0.593422
547.244500 0.557553
547.469900 0.558035
547.695300 0.552632
547.920600 0.568020
548.146000 0.578245
548.371500 0.586974
548.596900 0.597055
548.822300 0.581933
549.047800 0.584225
549.273200 0.552451
549.498700 0.538488
549.724200 0.499800
549.949600 0.553863
550.175100 0.505842
550.400700 0.487765
550.626200 0.567921
550.851700 0.513041
551.077300 0.536853
551.302800 0.515825
551.528400 0.514929
551.754000 0.478544
551.979600 0.472438
552.205200 0.492755
552.430800 0.471453
552.656400 0.512316
552.882000 0.471282
553.107700 0.457303
553.333300 0.459295
553.559000 0.446671
553.784700 0.460839
554.010400 0.462288
554.236100 0.485714
554.461800 0.438758
554.687500 0.472598
554.913200 0.442084
555.139000 0.431455
555.364800 0.422775
555.590500 0.448768
555.816300 0.424093
556.042100 0.449180
556.267900 0.419874
556.493700 0.432933
556.719500 0.421774
556.945400 0.445397
557.171200 0.433709
557.397100 0.414459
557.623000 0.435022
557.848800 0.367727
558.074700 0.426138
558.300600 0.383502
558.526600 0.374887
558.752500 0.406530
558.978400 0.368323
559.204400 0.380296
559.430300 0.353367
559.656300 0.364181
559.882300 0.340427
560.108300 0.355995
560.334300 0.361984
560.560300 0.329589
560.786300 0.373339
561.012400 0.319236
561.238400 0.325138
561.464500 0.356179
561.690500 0.349451
561.916600 0.333416
562.142700 0.333585
562.368800 0.317405
562.594900 0.361475
562.821100 0.343579
563.047200 0.317844
563.273300 0.358033
563.499500 0.336596
563.725700 0.309604
563.951900 0.310247
564.178100 0.294999
564.404300 0.295943
564.630500 0.329378
564.856700 0.296504
565.082900 0.297496
565.309200 0.309403
565.535500 0.274765
565.761700 0.288784
565.988000 0.297851
566.214300 0.264378
566.440600 0.285546
566.666900 0.262840
566.893200 0.298376
567.119600 0.277557
567.345900 0.265769
567.572300 0.274019
567.798700 0.269537
568.025000 0.251030
568.251400 0.270011
568.477800 0.269781
568.704300 0.255369
568.930700 0.249175
569.157100 0.262302
569.383600 0.236884
569.610000 0.244448
569.836500 0.239755
570.063000 0.235608
570.289500 0.249896
570.516000 0.246185
570.742500 0.248494
570.969000 0.248100
571.195600 0.223975
571.422100 0.228658
571.648700 0.245445
571.875200 0.235324
572.101800 0.242476
572.328400 0.244173
572.555000 0.228171
572.781600 0.232380
573.008200 0.234196
573.234900 0.237110
573.461500 0.236714
573.688200 0.231206
573.914900 0.229915
574.141500 0.220449
574.368200 0.210359
574.594900 0.213628
574.821600 0.216811
575.048400 0.216387
575.275100 0.215152
575.501800 0.209473
575.728600 0.202139
575.955400 0.218654
576.182100 0.226078
576.408900 0.223737
576.635700 0.218102
576.862600 0.210387
577.089400 0.206492
577.316200 0.197456
577.543100 0.200222
577.769900 0.202898
577.996800 0.193054
578.223700 0.196615
578.450500 0.194327
578.677400 0.193049
578.904400 0.196570
579.131300 0.197895
579.358200 0.195101
579.585100 0.177718
579.812100 0.181413
580.039100 0.190914
580.266000 0.180772
580.493000 0.182409
580.720000 0.188472
580.947000 0.182462
581.174100 0.170000
581.401100 0.170474
581.628100 0.163794
581.855200 0.165401
582.082200 0.166636
582.309300 0.170993
582.536400 0.160673
582.763500 0.165012
582.990600 0.159111
583.217700 0.168296
583.444900 0.169437
583.672000 0.168922
583.899100 0.180316
584.126300 0.170537
584.353500 0.166346
584.580700 0.158096
584.807900 0.177038
585.035100 0.168308
585.262300 0.157701
585.489500 0.161498
585.716700 0.154173
585.944000 0.158940
586.171300 0.151480
586.398500 0.160683
586.625800 0.158944
586.853100 0.155926
587.080400 0.155702
587.307700 0.150328
587.535000 0.146368
587.762400 0.142532
587.989700 0.157965
588.217100 0.158177
588.444500 0.145116
588.671800 0.146623
588.899200 0.149369
589.126600 0.140071
589.354000 0.159583
589.581500 0.141999
589.808900 0.153203
590.036300 0.141949
590.263800 0.150982
590.491300 0.144610
590.718700 0.144781
590.946200 0.141964
591.173700 0.138259
591.401200 0.151191
591.628800 0.148521
591.856300 0.159025
592.083800 0.147743
592.311400 0.137936
592.538900 0.147107
592.766500 0.129010
592.994100 0.139344
593.221700 0.138155
593.449300 0.134566
593.676900 0.130982
593.904600 0.136815
594.132200 0.137152
594.359800 0.128806
594.587500 0.139858
594.815200 0.131313
595.042900 0.140332
595.270500 0.150654
595.498300 0.145182
595.726000 0.139854
595.953700 0.138573
596.181400 0.134380
596.409200 0.135495
596.636900 0.150353
596.864700 0.140451
597.092500 0.144734
597.320300 0.138642
597.548100 0.129592
597.775900 0.141746
598.003700 0.144135
598.231500 0.142908
598.459400 0.151570
598.687200 0.138828
598.915100 0.133750
599.143000 0.130779
599.370900 0.131496
599.598800 0.142299
599.826700 0.137183
600.054600 0.139267
600.282500 0.151315
600.510500 0.129408
600.738400 0.128613
600.966400 0.124911
601.194400 0.113682
601.422300 0.118921
601.650300 0.130040
601.878300 0.109912
602.106400 0.118626
602.334400 0.129898
602.562400 0.135018
602.790500 0.127449
603.018500 0.122455
603.246600 0.130125
603.474700 0.120493
603.702800 0.122297
603.930900 0.126521
604.159000 0.133055
604.387100 0.123312
604.615200 0.122608
604.843400 0.123804
605.071500 0.125616
605.299700 0.121520
605.527900 0.117298
605.756100 0.117928
605.984300 0.111742
606.212500 0.111038
606.440700 0.111293
606.668900 0.110326
606.897200 0.111418
607.125400 0.112201
607.353700 0.105808
607.581900 0.110593
607.810200 0.102742
608.038500 0.103764
608.266800 0.105157
608.495100 0.105790
608.723500 0.104890
608.951800 0.114787
609.180100 0.105444
609.408500 0.116554
609.636900 0.112280
609.865300 0.117566
610.093600 0.107843
610.322000 0.117472
610.550500 0.114191
610.778900 0.113042
611.007300 0.107249
611.235700 0.115028
611.464200 0.121874
611.692700 0.110958
611.921100 0.107859
612.149600 0.120528
612.378100 0.111500
612.606600 0.114091
612.835100 0.120072
613.063700 0.118790
613.292200 0.112192
613.520800 0.110047
613.749300 0.116938
613.977900 0.115155
614.206500 0.104319
614.435100 0.113344
614.663700 0.122679
614.892300 0.124388
615.120900 0.111505
615.349500 0.113981
615.578200 0.109994
615.806800 0.107700
616.035500 0.112794
616.264200 0.106799
616.492900 0.114345
616.721600 0.101289
616.950300 0.114912
617.179000 0.104605
617.407700 0.104500
617.636500 0.099357
617.865200 0.099380
618.094000 0.115708
618.322700 0.103231
618.551500 0.089356
618.780300 0.086694
619.009100 0.097827
619.237900 0.128243
619.466700 0.094472
619.695600 0.097835
619.924400 0.089158
620.153300 0.111558
620.382100 0.115980
620.611000 0.094604
620.839900 0.106584
621.068800 0.081825
621.297700 0.092850
621.526600 0.118883
621.755600 0.091851
621.984500 0.104411
622.213500 0.103964
622.442400 0.095576
622.671400 0.112516
622.900400 0.101930
623.129400 0.124140
623.358400 0.090753
623.587400 0.099980
623.816400 0.079736
624.045400 0.102335
624.274500 0.095478
624.503500 0.100480
624.732600 0.101215
624.961700 0.104086
625.190800 0.099002
625.419900 0.081402
625.649000 0.108189
625.878100 0.096942
626.107200 0.093743
626.336400 0.102924
626.565500 0.112581
626.794700 0.112554
627.023800 0.101150
627.253000 0.101257
627.482200 0.117932
627.711400 0.101135
627.940600 0.097331
628.169800 0.090427
628.399100 0.099030
628.628300 0.080664
628.857600 0.079809
629.086800 0.102851
629.316100 0.094284
629.545400 0.092079
629.774700 0.104681
630.004000 0.095284
630.233300 0.112830
630.462600 0.102083
630.692000 0.105150
630.921300 0.087691
631.150700 0.122669
631.380100 0.101550
631.609400 0.112227
631.838800 0.106013
632.068200 0.091358
632.297600 0.113246
632.527100 0.089989
632.756500 0.093309
632.985900 0.089666
633.215400 0.121038
633.444800 0.088949
633.674300 0.101220
633.903800 0.097235
634.133300 0.069692
634.362800 0.106250
634.592300 0.091506
634.821800 0.098422
635.051400 0.124872
635.280900 0.111878
635.510500 0.086165
635.740000 0.125990
635.969600 0.100023
636.199200 0.112215
636.428800 0.116626
636.658400 0.099572
636.888000 0.090609
637.117700 0.090493
637.347300 0.100935
637.577000 0.090346
637.806600 0.094605
638.036300 0.104138
638.266000 0.106291
638.495700 0.107389
638.725400 0.080082
638.955100 0.081100
639.184800 0.093541
639.414500 0.111955
639.644300 0.071293
639.874000 0.088422
640.103800 0.099668
640.333600 0.107596
640.563300 0.085143
640.793100 0.080940
641.022900 0.114254
641.252800 0.094855
641.482600 0.137890
641.712400 0.119116
641.942300 0.081156
642.172100 0.120666
642.402000 0.052313
642.631900 0.083431
642.861700 0.095444
643.091600 0.113925
643.321600 0.091136
643.551500 0.053606
643.781400 0.119744
644.011300 0.073349
644.241300 0.087978
644.471200 0.087232
644.701200 0.101329
644.931200 0.140213
645.161200 0.088173
645.391200 0.091896
645.621200 0.092969
645.851200 0.073460
646.081200 0.082817
646.311300 0.149711
646.541300 0.136078
646.771400 0.082597
647.001500 0.094090
647.231600 0.095680
647.461600 0.118615
647.691800 0.168433
647.921900 0.073073
648.152000 0.069500
648.382100 0.090389
648.612300 0.095020
648.842400 0.116691
649.072600 0.128254
649.302800 0.106316
649.532900 0.105516
649.763100 0.076844
649.993300 0.110741
650.223600 0.074669
650.453800 0.097430
650.684000 0.067803
650.914300 0.111325
651.144500 0.110044
651.374800 0.119920
651.605100 0.085699
651.835400 0.081220
652.065700 0.091291
652.296000 0.060096
652.526300 0.095204
652.756600 0.082646
652.987000 0.148989
653.217300 0.062567
653.447700 0.091352
653.678000 0.064979
653.908400 0.105038
654.138800 0.112928
654.369200 0.113217
654.599600 0.101625
654.830000 0.149771
655.060500 0.149203
655.290900 0.161308
655.521300 0.143245
655.751800 0.106997
655.982300 -0.002891
656.212800 -0.000972
656.443300 -0.001453
656.673800 -0.001228
656.904300 0.054649
657.134800 0.109290
657.365300 0.110657
657.595900 0.111225
657.826400 0.109468
658.057000 0.117572
658.287500 0.116104
658.518100 0.115582
658.748700 0.118071
658.979300 0.122966
659.209900 0.145381
659.440600 0.168736
659.671200 0.169561
659.901800 0.187947
660.132500 0.165314
660.363200 0.165005
660.593800 0.131645
660.824500 0.070175
661.055200 0.084938
661.285900 0.083639
661.516600 0.104049
661.747400 0.088876
661.978100 0.086811
662.208800 0.109906
662.439600 0.127708
662.670400 0.072993
662.901100 0.101314
663.131900 0.106830
663.362700 0.073936
663.593500 0.108420
663.824300 0.080201
664.055200 0.094487
664.286000 0.065146
664.516800 0.105242
664.747700 0.085980
664.978600 0.090452
665.209400 0.101372
665.440300 0.121476
665.671200 0.116585
665.902100 0.103972
666.133000 0.056273
666.364000 0.104109
666.594900 0.076060
666.825900 0.090771
667.056800 0.080827
667.287800 0.064070
667.518800 0.092717
667.749700 0.079904
667.980700 0.103901
668.211700 0.078380
668.442800 0.092893
668.673800 0.157731
668.904800 0.126047
669.135900 0.128716
669.366900 0.071340
669.598000 0.115815
669.829100 0.044637
670.060200 0.087517
670.291300 0.114663
670.522400 0.108800
670.753500 0.083598
670.984600 0.106850
671.215700 0.121694
671.446900 0.127353
671.678100 0.092775
671.909200 0.073166
672.140400 0.125672
672.371600 0.059788
672.602800 0.111468
672.834000 0.076981
673.065200 0.074410
673.296400 0.117256
673.527700 0.112873
673.758900 0.091122
673.990200 0.121066
674.221400 0.107756
674.452700 0.092496
674.684000 0.094380
674.915300 0.156453
675.146600 0.132997
675.377900 0.064959
675.609300 0.111212
675.840600 0.114507
676.071900 0.093282
676.303300 0.112564
676.534700 0.081492
676.766100 0.061628
676.997400 0.105265
677.228800 0.106137
677.460200 0.098185
677.691700 0.105777
677.923100 0.101616
678.154500 0.075947
678.386000 0.064619
678.617400 0.087371
678.848900 0.059474
679.080400 0.058241
679.311900 0.081277
679.543400 0.112028
679.774900 0.094996
680.006400 0.127259
680.237900 0.084674
680.469400 0.073470
680.701000 0.093588
680.932500 0.089267
681.164100 0.106890
681.395700 0.075476
681.627300 0.138032
681.858900 0.099464
682.090500 0.107745
682.322100 0.089874
682.553700 0.077929
682.785400 0.086012
683.017000 0.118849
683.248700 0.094691
683.480300 0.096512
683.712000 0.075581
683.943700 0.111110
684.175400 0.099075
684.407100 0.110289
684.638800 0.080772
684.870500 0.144987
685.102300 0.105551
685.334000 0.081226
685.565800 0.107414
685.797500 0.101298
686.029300 0.079855
686.261100 0.130898
686.492900 0.090280
686.724700 0.110663
686.956500 0.100042
687.188300 0.105223
687.420200 0.104472
687.652000 0.081387
687.883800 0.086143
688.115700 0.072949
688.347600 0.089654
688.579500 0.079875
688.811400 0.090837
689.043300 0.105594
689.275200 0.100916
689.507100 0.110685
689.739000 0.073417
689.971000 0.053234
690.202900 0.104009
690.434900 0.095791
690.666900 0.092390
690.898800 0.114064
691.130800 0.124946
691.362800 0.105659
691.594800 0.099731
691.826900 0.117272
692.058900 0.107862
692.290900 0.118082
692.523000 0.111464
692.755000 0.123448
692.987100 0.086442
693.219200 0.107546
693.451300 0.101979
693.683400 0.086451
693.915500 0.092305
694.147600 0.084337
694.379700 0.096538
694.611900 0.116044
694.844000 0.082746
695.076200 0.058848
695.308300 0.114391
695.540500 0.116829
695.772700 0.076676
696.004900 0.065337
696.237100 0.099882
696.469300 0.095513
696.701600 0.114917
696.933800 0.057065
697.166000 0.087218
697.398300 0.082662
697.630600 0.092494
697.862800 0.096224
698.095100 0.114820
698.327400 0.110236
698.559700 0.096438
698.792000 0.079214
699.024300 0.091626
699.256700 0.124454
699.489000 0.106226
699.721400 0.085211
699.953700 0.086630
700.186100 0.084755
700.418500 0.110102
700.650900 0.108850
700.883300 0.104623
701.115700 0.112107
701.348100 0.057461
701.580600 0.096035
701.813000 0.142009
702.045400 0.065064
702.277900 0.107026
702.510400 0.112952
702.742900 0.091608
702.975300 0.089787
703.207800 0.097970
703.440300 0.109340
703.672900 0.101291
703.905400 0.062851
704.137900 0.060347
704.370500 0.065228
704.603000 0.078224
704.835600 0.102850
705.068200 0.077790
705.300800 0.080664
705.533400 0.137069
705.766000 0.113922
705.998600 0.119393
706.231200 0.140536
706.463800 0.125535
706.696500 0.131908
706.929100 0.075961
707.161800 0.058381
707.394500 0.073031
707.627200 0.091909
707.859900 0.129107
708.092600 0.105951
708.325300 0.102505
708.558000 0.075402
708.790700 0.102198
709.023500 0.089902
709.256200 0.065372
709.489000 0.040741
709.721700 0.087719
709.954500 0.109060
710.187300 0.062493
710.420100 0.117497
710.652900 0.055830
710.885700 0.083506
711.118600 0.094580
711.351400 0.080155
711.584200 0.067250
711.817100 0.134108
712.050000 0.098089
712.282800 0.074533
712.515700 0.055920
712.748600 0.101240
712.981500 0.088786
713.214400 0.106892
713.447400 0.096356
713.680300 0.095772
713.913200 0.110038
714.146200 0.074900
714.379100 0.075866
714.612100 0.113560
714.845100 0.104657
715.078100 0.085276
715.311100 0.057182
715.544100 0.084271
715.777100 0.051469
716.010200 0.083404
716.243200 0.092683
716.476200 0.071589
716.709300 0.102366
716.942400 0.103271
717.175400 0.101134
717.408500 0.136973
717.641600 0.071751
717.874700 0.069251
718.107800 0.098127
718.341000 0.061078
718.574100 0.096814
718.807200 0.105015
719.040400 0.119418
719.273600 0.106952
719.506700 0.118569
719.739900 0.114205
719.973100 0.046601
720.206300 0.102400
720.439500 0.126431
720.672700 0.055654
720.906000 0.095249
721.139200 0.079640
721.372500 0.100712
721.605700 0.069910
721.839000 0.103991
722.072300 0.089543
722.305500 0.091513
722.538800 0.067883
722.772100 0.081405
723.005500 0.087579
723.238800 0.068652
723.472100 0.096988
723.705500 0.113023
723.938800 0.094474
724.172200 0.087516
724.405600 0.082934
724.638900 0.102057
724.872300 0.086869
725.105700 0.102936
725.339100 0.091710
725.572600 0.113663
725.806000 0.053046
726.039400 0.072769
726.272900 0.100708
726.506300 0.083778
726.739800 0.105590
726.973300 0.081416
727.206800 0.115258
727.440300 0.127995
727.673800 0.106344
727.907300 0.115420
728.140800 0.086435
728.374300 0.103145
728.607900 0.101543
728.841400 0.077414
729.075000 0.086024
729.308600 0.072650
729.542100 0.102411
729.775700 0.096732
730.009300 0.074478
730.242900 0.075559
730.476600 0.103599
730.710200 0.082071
730.943800 0.093613
731.177500 0.110912
731.411100 0.098242
731.644800 0.104464
731.878500 0.097877
732.112200 0.093533
732.345800 0.109815
732.579500 0.116568
732.813300 0.098189
733.047000 0.103362
733.280700 0.123401
733.514500 0.083754
733.748200 0.112329
733.982000 0.112602
734.215700 0.084238
734.449500 0.131531
734.683300 0.110054
734.917100 0.098840
735.150900 0.114476
735.384700 0.087330
735.618500 0.103664
735.852400 0.084318
736.086200 0.094078
736.320100 0.085014
736.553900 0.093461
736.787800 0.103081
737.021700 0.088940
737.255600 0.109756
737.489500 0.075877
737.723400 0.070843
737.957300 0.087956
738.191200 0.096063
738.425200 0.076819
738.659100 0.083342
738.893100 0.081826
739.127100 0.115368
739.361000 0.090378
739.595000 0.093851
739.829000 0.106077
740.063000 0.091733
740.297000 0.072818
740.531000 0.085154
740.765100 0.104227
740.999100 0.110920
741.233200 0.086062
741.467200 0.104273
741.701300 0.049447
741.935400 0.097942
742.169500 0.074126
742.403600 0.074741
742.637700 0.081559
742.871800 0.057715
743.105900 0.105786
743.340000 0.086829
743.574200 0.087038
743.808300 0.090161
744.042500 0.092746
744.276700 0.115036
744.510800 0.099016
744.745000 0.062529
744.979200 0.095713
745.213400 0.106245
745.447700 0.093427
745.681900 0.096583
745.916100 0.123322
746.150400 0.048478
746.384600 0.102160
746.618900 0.042818
746.853200 0.101668
747.087400 0.082418
747.321700 0.081153
747.556000 0.037597
747.790300 0.119066
748.024700 0.067583
748.259000 0.116974
748.493300 0.093942
748.727700 0.068218
748.962000 0.074621
749.196400 0.082984
749.430800 0.123046
749.665200 0.086514
749.899500 0.099107
750.133900 0.087028
750.368400 0.104935
750.602800 0.056839
750.837200 0.059822
751.071700 0.115198
751.306100 0.122745
751.540600 0.079839
751.775000 0.107487
752.009500 0.063060
752.244000 0.104805
752.478500 0.115273
752.713000 0.105055
752.947500 0.093711
753.182000 0.100672
753.416600 0.089268
753.651100 0.103033
753.885600 0.078351
754.120200 0.087873
754.354800 0.077372
754.589400 0.090839
754.823900 0.108878
755.058500 0.075537
755.293100 0.093482
755.527800 0.114361
755.762400 0.103163
755.997000 0.097439
756.231700 0.080809
756.466300 0.106498
756.701000 0.086830
756.935600 0.100070
757.170300 0.092704
757.405000 0.113920
757.639700 0.096568
757.874400 0.082366
758.109100 0.092711
758.343800 0.101261
758.578600 0.095940
758.813300 0.087668
759.048100 0.091345
759.282800 0.091599
759.517600 0.065245
759.752400 0.093728
759.987200 0.097087
760.222000 0.081959
760.456800 0.086131
760.691600 0.111966
760.926400 0.084702
761.161300 0.101643
761.396100 0.083839
761.631000 0.115657
761.865800 0.122189
762.100700 0.116852
762.335600 0.091180
762.570500 0.092777
762.805400 0.099748
763.040300 0.080056
763.275200 0.078264
763.510100 0.095788
763.745000 0.093316
763.980000 0.116924
764.214900 0.083629
764.449900 0.094681
764.684900 0.118877
764.919800 0.073052
765.154800 0.084551
765.389800 0.088602
765.624800 0.113385
765.859900 0.055122
766.094900 0.074160
766.329900 0.115683
766.565000 0.101672
766.800000 0.069874
767.035100 0.094517
767.270100 0.102098
767.505200 0.088257
767.740300 0.098820
767.975400 0.104890
768.210500 0.075397
768.445600 0.075573
768.680800 0.100188
768.915900 0.109612
769.151000 0.106605
769.386200 0.090487
769.621400 0.090401
769.856500 0.109978
770.091700 0.093708
770.326900 0.076698
770.562100 0.099625
770.797300 0.100058
771.032500 0.099559
771.267700 0.083616
771.503000 0.081866
771.738200 0.155094
771.973500 0.095461
772.208700 0.090417
772.444000 0.092596
772.679300 0.059159
772.914600 0.087825
773.149900 0.077194
773.385200 0.091238
773.620500 0.101341
773.855800 0.095622
774.091100 0.081087
774.326500 0.098155
774.561800 0.088456
774.797200 0.107791
775.032600 0.103467
775.267900 0.048494
775.503300 0.113010
775.738700 0.097701
775.974100 0.104214
776.209500 0.098196
776.445000 0.119361
776.680400 0.145907
776.915800 0.117752
777.151300 0.079018
777.386800 0.075784
777.622200 0.093502
777.857700 0.088205
778.093200 0.082113
778.328700 0.118499
778.564200 0.062676
778.799700 0.092931
779.035200 0.088934
779.270700 0.121852
779.506300 0.106452
779.741800 0.104281
779.977400 0.059021
780.213000 0.118253
780.448500 0.111800
780.684100 0.075501
780.919700 0.129291
781.155300 0.063471
781.390900 0.104647
781.626500 0.084854
781.862200 0.142160
782.097800 0.090481
782.333500 0.090710
782.569100 0.103344
782.804800 0.099800
783.040500 0.079431
783.276100 0.089678
783.511800 0.063189
783.747500 0.124531
783.983200 0.102362
784.219000 0.097492
784.454700 0.114891
784.690400 0.114043
784.926200 0.096361
785.161900 0.114100
785.397700 0.089470
785.633500 0.063147
785.869200 0.084596
786.105000 0.100104
786.340800 0.079571
786.576600 0.095084
786.812400 0.098859
787.048300 0.087197
787.284100 0.105170
787.519900 0.087135
787.755800 0.142832
787.991700 0.079178
788.227500 0.101562
788.463400 0.077582
788.699300 0.085588
788.935200 0.115194
789.171100 0.098149
789.407000 0.092600
789.642900 0.077821
789.878900 0.098171
790.114800 0.148564
790.350700 0.047005
790.586700 0.125565
790.822700 0.125757
791.058600 0.101221
791.294600 0.091346
791.530600 0.088926
791.766600 0.077919
792.002600 0.140733
792.238700 0.106465
792.474700 0.094535
792.710700 0.077335
792.946800 0.064511
793.182800 0.115253
793.418900 0.089034
793.655000 0.113823
793.891000 0.106196
794.127100 0.120613
794.363200 0.119896
794.599300 0.095926
794.835500 0.127312
795.071600 0.081230
795.307700 0.110563
795.543900 0.079990
795.780000 0.085370
796.016200 0.096330
796.252300 0.094738
796.488500 0.086216
796.724700 0.142645
796.960900 0.072607
797.197100 0.117872
797.433300 0.054457
797.669500 0.117496
797.905800 0.149103
798.142000 0.107456
798.378300 0.094004
798.614500 0.119605
798.850800 0.108484
799.087100 0.121194
799.323300 0.094864
799.559600 0.065087
799.795900 0.103960
800.032200 0.080251
800.268600 0.093528
800.504900 0.156515
800.741200 0.098639
800.977600 0.092765
801.213900 0.097447
801.450300 0.162009
801.686700 0.097846
801.923000 0.107500
802.159400 0.101479
802.395800 0.080300
802.632200 0.106018
802.868600 0.041769
803.105100 0.165753
803.341500 0.056549
803.577900 0.115138
803.814400 0.094562
804.050800 0.118129
804.287300 0.105677
804.523800 0.084319
804.760300 0.072805
804.996800 0.062850
805.233300 0.108935
805.469800 0.109205
805.706300 0.078676
805.942800 0.125786
806.179400 0.062985
806.415900 0.086238
806.652500 0.093711
806.889000 0.145182
807.125600 0.126835
807.362200 0.110436
807.598800 0.146258
807.835400 0.074605
808.072000 0.047979
808.308600 0.054892
808.545200 0.113690
808.781800 0.057906
809.018500 0.147754
809.255100 0.097592
809.491800 0.084145
809.728400 0.090347
809.965100 0.064596
810.201800 0.054373
810.438500 0.083010
810.675200 0.007671
810.911900 0.116581
811.148600 0.174770
811.385300 0.043622
811.622100 0.126346
811.858800 0.118542
812.095600 0.089870
812.332300 0.099255
812.569100 0.043366
812.805900 0.144635
813.042700 0.118527
813.279500 0.152313
813.516300 0.126203
813.753100 0.107010
813.989900 0.104160
814.226700 0.117789
814.463600 0.107961
814.700400 0.100381
814.937300 0.102190
815.174200 0.085235
815.411000 0.061284
815.647900 0.072695
815.884800 0.090750
816.121700 0.105772
816.358600 0.128135
816.595500 0.097058
816.832400 0.045000
817.069400 0.122414
817.306300 0.146954
817.543300 0.069315
817.780200 0.018806
818.017200 0.168958
818.254200 0.070467
818.491200 0.131173
818.728200 0.125319
818.965200 0.068886
819.202200 0.105256
819.439200 0.100502
819.676200 0.104093
819.913300 0.050010
820.150300 0.092732
820.387400 0.145963
820.624400 0.115598
820.861500 0.136318
821.098600 0.101825
821.335700 0.144587
821.572700 0.158355
821.809900 0.102297
822.047000 0.081751
822.284100 0.063926
822.521200 0.141376
822.758400 0.110293
822.995500 0.136624
823.232700 0.130322
823.469800 0.193178
823.707000 0.095346
823.944200 0.122164
824.181400 0.126583
824.418600 0.145348
824.655800 0.042272
824.893000 0.079837
825.130200 0.117412
825.367500 0.117278
825.604700 0.087631
825.841900 0.150468
826.079200 0.185521
826.316500 0.179876
826.553700 0.051307
826.791000 0.141844
827.028300 0.135982
827.265600 0.085686
827.502900 0.116099
827.740200 0.132302
827.977600 0.158619
828.214900 0.179583
828.452200 0.154108
828.689600 0.080987
828.927000 0.121167
829.164300 0.038051
829.401700 0.047598
829.639100 0.155805
829.876500 0.091578
830.113900 0.181556
830.351300 0.172428
830.588700 0.169785
830.826100 0.106151
831.063600 0.191401
831.301000 0.130122
831.538500 0.123288
831.775900 0.069491
832.013400 0.040337
832.250900 0.049487
832.488400 0.114623
832.725900 0.170516
832.963400 0.145531
833.200900 0.106656
833.438400 0.107964
833.675900 0.181198
833.913500 0.145296
834.151000 0.142638
834.388600 0.149544
834.626100 0.189732
834.863700 0.238874
835.101300 0.029809
835.338900 0.204672
835.576500 0.127058
835.814100 0.073803
836.051700 0.065448
836.289300 0.267249
836.526900 0.028568
836.764600 0.159596
837.002200 0.260385
837.239900 0.111179
837.477500 0.119312
837.715200 0.050760
837.952900 0.060285
838.190600 0.168404
838.428300 0.024328
838.666000 0.161079
838.903700 0.076093
839.141400 0.065061
839.379100 0.212030
839.616900 0.037078
839.854600 0.176555
840.092400 0.088915
840.330200 0.257668
840.567900 0.205077
840.805700 0.215228
841.043500 0.123283
841.281300 0.168004
841.519100 0.158709
841.756900 0.132013
841.994700 0.063836
842.232600 0.017378
842.470400 0.237431
842.708200 0.054638
842.946100 0.006327
843.184000 -0.003747
843.421800 0.242117
843.659700 0.249102
843.897600 0.163831
844.135500 0.258294
844.373400 0.060316
844.611300 0.236343
844.849200 0.263799
845.087200 0.291916
845.325100 0.062980
845.563100 0.100255
845.801000 0.186286
846.039000 0.064513
846.277000 0.208884
846.514900 0.124651
846.752900 0.170212
846.990900 0.154507
847.228900 -0.061699
847.466900 0.157387
847.705000 0.176051
847.943000 -0.027369
848.181000 0.292408
848.419100 0.191107
848.657100 0.095767
848.895200 0.231798
849.133300 0.073908
849.371300 0.204981
849.609400 0.143215
849.847500 0.324572
850.085600 0.174154
850.323700 0.177539
850.561900 0.036737
850.800000 0.141237
851.038100 0.076467
851.276300 0.380084
851.514400 0.005866
851.752600 0.103896
851.990800 0.117746
852.228900 0.180685
852.467100 0.174137
852.705300 0.003738
852.943500 0.051398
853.181700 0.117567
853.420000 0.069973
853.658200 0.089123
853.896400 0.164334
854.134700 0.087212
854.372900 0.069090
854.611200 0.126794
854.849500 0.146540
855.087700 0.108814
855.326000 0.108101
855.564300 0.099805
855.802600 0.105013
856.040900 0.154269
856.279200 0.164126
856.517600 0.102779
856.755900 0.097745
856.994200 0.054759
857.232600 0.166127
857.471000 0.154879
857.709300 0.103334
857.947700 0.061979
858.186100 0.208591
858.424500 0.073730
858.662900 0.110802
858.901300 0.151655
859.139700 0.132414
859.378100 0.104370
859.616600 0.077055
859.855000 0.064824
860.093500 0.155968
860.331900 0.130590
860.570400 0.208468
860.808900 0.117544
861.047300 0.204473
861.285800 0.121679
861.524300 0.177116
861.762800 0.124512
862.001300 -0.007291
862.239900 0.159873
862.478400 0.071691
862.716900 0.078902
862.955500 0.221942
863.194000 0.061641
863.432600 0.096500
863.671200 0.104527
863.909800 0.115602
864.148300 0.031998
864.386900 0.030020
864.625500 0.287391
864.864200 0.108946
865.102800 0.036652
865.341400 0.022656
865.580000 0.156203
865.818700 0.000840
866.057300 0.093003
866.296000 0.110238
866.534700 0.129856
866.773300 0.185380
867.012000 0.211138
867.250700 0.347534
867.489400 0.051892
867.728100 0.105122
867.966900 0.097902
868.205600 0.158840
868.444300 0.098441
868.683100 0.173432
868.921800 -0.044382
869.160600 0.081771
869.399300 0.107606
869.638100 0.088791
869.876900 0.272633
870.115700 0.156476
870.354500 0.088543
870.593300 0.134724
870.832100 0.145640
871.070900 0.094027
871.309700 0.242504
871.548600 0.198674
871.787400 0.239277
872.026300 0.179142
872.265100 0.091072
872.504000 -0.028146
872.742900 0.180578
872.981800 0.035146
873.220700 0.231303
873.459600 0.301533
873.698500 0.119499
873.937400 0.136760
874.176300 0.106964
874.415300 0.134140
874.654200 0.177541
874.893200 0.224743
875.132100 0.045166
875.371100 0.080518
875.610100 0.253763
875.849100 0.388079
876.088000 0.149225
876.327000 0.326408
876.566100 0.170941
876.805100 0.184629
877.044100 -0.020171
877.283100 -0.069139
877.522200 0.057469
877.761200 0.167138
878.000300 0.327306
878.239300 0.221943
878.478400 0.139689
878.717500 0.145688
878.956600 0.166335
879.195700 0.204356
879.434800 0.112352
879.673900 0.126162
879.913000 0.056697
880.152100 0.277076
880.391300 0.182342
880.630400 0.107163
880.869600 0.102001
881.108700 0.279136
881.347900 0.053901
881.587100 0.190585
881.826200 0.187946
882.065400 0.107910
882.304600 0.064248
882.543800 0.216211
882.783100 0.233498
883.022300 0.177488
883.261500 0.046477
883.500700 0.241047
883.740000 0.081911
883.979200 0.108412
884.218500 0.272028
884.457800 0.250327
884.697100 0.416566
884.936300 0.151005
885.175600 0.138740
885.414900 0.039235
885.654200 0.246573
885.893600 0.073327
886.132900 0.123189
886.372200 0.132176
886.611600 -0.039857
886.850900 0.218415
887.090300 0.002948
887.329600 0.062929
887.569000 0.082849
887.808400 0.231824
888.047800 0.094499
888.287200 0.104062
888.526600 0.300860
888.766000 0.025233
889.005400 0.027369
889.244800 0.292280
889.484300 -0.018748
889.723700 0.089799
889.963200 0.139473
890.202600 0.090216
890.442100 -0.042474
890.681600 0.089706
890.921100 0.156222
891.160600 0.281194
891.400100 0.234520
891.639600 0.019565
891.879100 0.285700
892.118600 0.113386
892.358100 0.054432
892.597700 0.328745
892.837200 0.213978
893.076800 0.295861
893.316300 0.561804
893.555900 0.122833
893.795500 0.167077
894.035100 0.237440
894.274700 0.187963
894.514300 0.059186
894.753900 0.039397
894.993500 0.346260
895.233100 0.043040
895.472700 0.066028
895.712400 0.207815
895.952000 0.028023
896.191700 0.150224
896.431400 -0.061021
896.671000 0.212303
896.910700 0.193924
897.150400 0.101897
897.390100 0.161038
897.629800 0.330541
897.869500 0.186516
898.109200 0.344321
898.348900 0.230644
898.588700 0.216173
898.828400 0.004772
899.068200 0.187877
899.307900 0.081293
899.547700 0.293097
899.787500 0.180240
900.027200 -0.077203
900.267000 0.120479
900.506800 0.226943
900.746600 0.171527
900.986400 0.128395
901.226300 0.178779
901.466100 0.136721
901.705900 0.308103
901.945800 0.139566
902.185600 0.209280
902.425500 0.049550
902.665400 -0.119034
902.905200 0.159155
903.145100 0.206813
903.385000 0.040001
903.624900 0.600408
903.864800 0.509862
904.104700 0.233405
904.344600 0.173978
904.584600 -0.017948
904.824500 0.087117
905.064400 0.354480
905.304400 0.222562
905.544400 0.134669
905.784300 0.216903
906.024300 0.227313
906.264300 0.131117
906.504300 0.184436
906.744300 0.270338
906.984300 0.035035
907.224300 0.185790
907.464300 0.190583
907.704300 0.064264
907.944400 0.124279
908.184400 0.014205
908.424500 0.079363
908.664500 0.108407
908.904600 0.113770
909.144700 0.266907
909.384700 0.475280
909.624800 0.020809
909.864900 0.199036
910.105000 0.515619
910.345200 0.142198
910.585300 0.110145
910.825400 0.220882
911.065500 0.163283
911.305700 0.217875
911.545800 0.327541
911.786000 0.045273
912.026200 -0.035417
912.266300 0.056023
912.506500 0.336481
912.746700 0.168890
912.986900 0.218168
913.227100 0.036626
913.467300 0.066622
913.707500 0.170172
913.947800 0.147464
914.188000 0.278148
914.428300 0.095068
914.668500 0.086468
914.908800 0.008058
915.149000 -0.071423
915.389300 0.567170
915.629600 0.400767
915.869900 0.121259
916.110200 0.000287
916.350500 0.477881
916.590800 -0.026603
916.831100 0.304028
917.071400 0.406178
917.311800 0.065856
917.552100 0.050119
917.792500 0.104615
918.032800 0.101276
918.273200 0.222302
918.513600 0.221849
918.753900 0.265714
918.994300 0.184640
919.234700 0.535903
919.475100 0.173836
919.715500 0.371124
919.956000 0.160928
920.196400 0.115411
920.436800 0.359127
920.677300 0.117120
920.917700 0.314766
921.158200 0.239339
921.398600 0.085955
921.639100 0.323815
921.879600 -0.137674
922.120100 0.203781
922.360600 0.125048
922.601100 0.017011
922.841600 0.637299
923.082100 0.000272
923.322600 -0.009531
923.563100 0.589533
923.803700 0.046901
924.044200 -0.070055
924.284800 0.157760
924.525400 0.105885
924.765900 0.207272
925.006500 0.297373
925.247100 0.067223
925.487700 0.161791
925.728300 0.222185
925.968900 0.183047
926.209500 0.032918
926.450100 0.683419
926.690800 0.323938
926.931400 0.482509
927.172000 0.556395
927.412700 0.331554
927.653300 0.265342
927.894000 0.469051
928.134700 0.297370
928.375400 -0.001407
928.616100 0.354225
928.856800 0.094481
929.097500 -0.043719
929.338200 0.120200
929.578900 0.445262
929.819600 0.316398
930.060400 -0.014182
930.301100 0.437557
930.541900 0.257024
930.782600 -0.051320
931.023400 0.202967
931.264200 0.422536
931.504900 0.967760
931.745700 0.896352
931.986500 -0.115000
932.227300 1.183104
932.468100 0.177270
932.708900 0.084639
932.949800 1.547998
933.190600 0.434232
933.431400 0.086042
933.672300 0.171576
933.913100 0.054908
934.154000 0.136971
934.394900 0.258942
934.635800 0.593087
934.876600 0.093675
935.117500 0.452270
935.358400 0.900940
935.599300 1.104317
935.840300 0.115642
936.081200 0.472667
936.322100 0.110501
936.563000 1.768123
936.804000 0.388838
937.044900 0.522624
937.285900 -0.023895
937.526900 1.356547
937.767800 0.236802
938.008800 0.263779
938.249800 0.594799
938.490800 1.183882
938.731800 0.375089
938.972800 0.151959
939.213800 0.122990
939.454900 0.109610
939.695900 0.448671
939.936900 0.452741
940.178000 3.231724
940.419000 0.226565
940.660100 0.997786
940.901200 0.106687
941.142200 2.913814
941.383300 0.897057
941.624400 0.619534
941.865500 0.313371
942.106600 0.387921
942.347700 0.176660
942.588900 1.138910
942.830000 0.217732
943.071100 3.047275
943.312300 0.155049
943.553400 0.514937
943.794600 0.015135
944.035700 0.864129
944.276900 0.219289
944.518100 0.579180
944.759300 0.174157
945.000500 0.053583
945.241700 0.739094
945.482900 0.072466
945.724100 0.414856
945.965300 0.330284
946.206600 0.410992
946.447800 1.118851
946.689100 -0.154604
946.930300 -0.221540
947.171600 0.077070
947.412800 0.521126
947.654100 0.273887
947.895400 0.414603
948.136700 1.009490
948.378000 2.902547
948.619300 -0.031001
948.860600 0.358955
949.101900 3.220892
949.343300 0.455819
949.584600 3.250176
949.825900 3.104828
950.067300 3.389875
950.308600 2.975891
950.550000 0.446037
950.791400 0.126919
951.032700 2.872739
951.274100 0.169014
951.515500 0.099992
951.756900 0.316869
951.998300 3.245019
952.239800 0.222727
952.481200 0.218813
952.722600 0.105487
952.964000 3.406370
953.205500 0.912825
953.446900 0.018424
953.688400 0.048089
953.929900 0.327170
954.171300 -1.157544
954.412800 -0.212103
954.654300 3.226342
954.895800 -0.210139
955.137300 -0.030298
955.378800 0.022736
955.620300 0.106946
955.861800 3.323252
956.103400 0.708993
956.344900 3.192289
956.586500 -0.070581
956.828000 0.301030
957.069600 0.734632
957.311100 0.428111
957.552700 3.389875
957.794300 0.001042
958.035900 1.177348
958.277500 0.176415
958.519100 0.715873
958.760700 -0.077300
959.002300 2.632457
959.243900 -0.236019
959.485600 -0.070004
959.727200 0.278815
959.968800 0.545643
960.210500 0.129076
960.452200 0.508295
960.693800 2.919078
960.935500 0.000000
961.177200 0.653696
961.418900 2.653213
961.660600 -0.140124
961.902300 0.591442
962.144000 2.673021
962.385700 0.258936
962.627400 -0.036399
962.869200 0.483803
963.110900 3.003891
963.352700 -0.030298
963.594400 0.929816
963.836200 0.555521
964.077900 -0.008467
964.319700 3.145818
964.561500 0.149049
964.803300 0.531794
965.045100 0.156380
965.286900 2.791691
965.528700 -0.082614
965.770500 -0.281977
966.012300 -0.179952
966.254200 2.791691
966.496000 -0.394345
966.737900 3.206826
966.979700 0.009480
967.221600 2.833784
967.463400 0.519244
967.705300 3.152288
967.947200 2.859739
968.189100 2.510545
968.431000 0.366512
968.672900 -0.014264
968.914800 -0.140360
969.156700 0.631131
969.398700 0.038591
969.640600 2.245513
969.882500 1.271530
970.124500 -0.132382
970.366400 0.270495
970.608400 -0.127586
970.850400 0.177363
971.092300 2.890421
971.334300 2.990339
971.576300 2.598791
971.818300 0.484403
972.060300 3.062958
972.302300 3.275081
972.544300 0.137620
972.786400 0.357025
973.028400 1.808886
973.270400 0.237410
973.512500 3.082426
973.754500 0.136303
973.996600 0.550712
974.238700 0.334597
974.480700 -0.425741
974.722800 0.482125
974.964900 1.461799
975.207000 3.215373
975.449100 2.338456
975.691200 3.046885
975.933300 0.378027
976.175500 0.000000
976.417600 3.051153
976.659700 0.066588
976.901900 3.021603
977.144000 3.192567
977.386200 -0.112860
977.628300 1.526686
977.870500 0.449940
978.112700 -0.221122
978.354900 2.775974
978.597100 0.081575
978.839300 3.206826
979.081500 -0.096643
979.323700 0.000000
979.565900 2.663701
979.808200 3.265290
980.050400 3.226342
980.292600 3.008600
980.534900 1.068355
980.777100 -0.167027
981.019400 2.752816
981.261700 0.593669
981.504000 3.348889
981.746200 -0.440459
981.988500 0.537587
982.230800 0.080406
982.473100 0.110860
982.715500 3.218010
982.957800 -0.338962
983.200100 2.990339
983.442400 0.003205
983.684800 2.799341
983.927100 2.890421
984.169500 2.985426
984.411800 -0.086012
984.654200 2.760422
984.896600 0.308999
985.139000 1.230449
985.381400 0.896731
985.623800 3.218010
985.866200 1.400200
986.108600 0.000000
986.351000 0.854377
986.593400 2.820201
986.835800 3.142702
987.078300 -0.383808
987.320700 0.464845
987.563200 2.700704
987.805600 2.414973
988.048100 3.189209
988.290600 -0.297624
988.533100 -3.096562
988.775600 -0.077588
989.018000 3.115278
989.260500 0.456950
989.503100 0.000000
989.745600 -0.161706
989.988100 -2.741939
990.230600 0.158585
990.473200 2.935507
990.715700 0.813634
990.958200 2.523746
991.200800 -0.100023
991.443400 -2.235528
991.685900 2.710117
991.928500 0.000000
992.171100 -0.801156
992.413700 3.125806
992.656300 3.161667
992.898900 2.866287
993.141500 3.078457
993.384100 -0.036444
993.626700 0.386202
993.869400 0.387510
994.112000 2.806180
994.354700 3.165244
994.597300 0.032372
994.840000 0.000000
995.082600 2.480007
995.325300 2.269513
995.568000 -0.219008
995.810700 2.127105
996.053400 -0.175500
996.296100 2.827369
996.538800 3.042969
996.781500 3.171141
997.024200 2.049218
997.267000 0.965616
997.509700 0.247654
997.752400 2.768638
997.995200 3.051153
998.237900 2.701568
998.480700 2.890421
998.723500 -2.037426
998.966200 2.956168
999.209000 -2.607455
999.451800 0.133487
999.694600 3.025715
999.937400 -0.455723
1000.180200 0.068186
1000.423000 3.101403
1000.665900 2.907949
1000.908700 2.396199
1001.151500 0.222391
1001.394400 2.745075
1001.637200 0.495258
1001.880100 0.778151
1002.123000 2.840106
1002.365800 2.599883
1002.608700 -0.745869
1002.851600 2.913284
1003.094500 3.086360
1003.337400 -0.432824
1003.580300 -2.758155
1003.823200 2.414973
1004.066100 -0.112086
1004.309100 0.069024
1004.552000 3.008600
1004.794900 0.177327
1005.037900 3.129368
1005.280800 2.806180
1005.523800 3.183555
1005.766700 0.278754
1006.009700 0.933332
1006.252700 -3.024896
1006.495700 0.123604
1006.738700 0.000000
1006.981700 1.191603
1007.224700 2.653213
1007.467700 2.008600
1007.710700 0.431683
1007.953800 0.080175
1008.196800 0.500868
1008.439800 0.470252
1008.682900 2.691965
1008.925900 3.097604
1009.169000 1.486289
1009.412100 -2.689309
1009.655100 2.008600
1009.898200 0.237823
1010.141300 -0.125739
1010.384400 3.012837
1010.627500 2.550228
1010.870600 0.423305
1011.113700 0.215956
1011.356800 0.376157
1011.600000 1.591065
1011.843100 2.872156
1012.086300 -2.650308
1012.329400 2.907411
1012.572600 0.000000
1012.815700 1.121146
1013.058900 0.000000
1013.302100 3.003891
1013.545200 0.310639
1013.788400 0.383132
1014.031600 0.000000
1014.274800 3.075182
1014.518000 0.656817
1014.761300 1.063593
1015.004500 0.000000
1015.247700 2.940516
1015.490900 0.000000
1015.734200 0.108181
1015.977400 2.450249
1016.220700 -2.475671
1016.464000 2.853090
1016.707200 0.076388
1016.950500 0.142869
1017.193800 -0.031071
1017.437100 0.229854
1017.680400 -0.039469
1017.923700 1.031408
1018.167000 0.561479
1018.410300 2.643453
1018.653600 2.913814
1018.896900 3.021603
1019.140300 0.525045
1019.383600 2.662758
1019.627000 -0.046972
1019.870300 0.286406
1020.113700 3.183555
1020.357100 2.575188
1020.600400 2.853698
1020.843800 3.090258
1021.087200 3.287130
1021.330600 -0.602060
1021.574000 0.363206
1021.817400 0.000000
1022.060800 0.000000
1022.304200 0.000000
1022.547700 1.239245
1022.791100 2.432969
1023.034500 2.812913
