# Wavelength	Absorbance
197.780200 -0.106905
197.984200 0.535037
198.188200 0.840919
198.392200 0.249176
198.596300 0.300024
198.800300 0.340340
199.004400 0.319764
199.208500 0.361137
199.412600 0.126394
199.616800 2.768638
199.820900 -0.440413
200.025100 2.877947
200.229200 -0.602060
200.433400 3.008600
200.637600 -0.073151
200.841800 2.902003
201.046100 0.224697
201.250300 0.297604
201.454600 0.173617
201.658900 3.051153
201.863100 0.293189
202.067400 0.457226
202.271800 1.149289
202.476100 -0.119253
202.680500 0.322219
202.884800 2.980458
203.089200 3.034628
203.293600 0.269404
203.498000 0.171345
203.702400 -0.447444
203.906900 1.959041
204.111300 -1.255273
204.315800 -0.296542
204.520300 0.273377
204.724800 -0.235111
204.929300 -0.025405
205.133800 0.543543
205.338400 -0.029218
205.543000 0.440652
205.747500 0.186601
205.952100 -0.049043
206.156700 0.226417
206.361400 -2.942504
206.566000 -0.461814
206.770600 0.012563
206.975300 -0.342022
207.180000 0.845098
207.384700 0.643228
207.589400 -2.689309
207.794100 2.480007
207.998900 2.622214
208.203600 3.152288
208.408400 0.068265
208.613200 0.365357
208.818000 -0.407002
209.022800 -0.161368
209.227600 0.811601
209.432500 0.899348
209.637300 2.752816
209.842200 -0.401015
210.047100 -0.180442
210.252000 -0.011380
210.456900 0.241262
210.661800 0.418890
210.866800 0.026009
211.071800 0.421440
211.276700 0.286772
211.481700 0.281552
211.686700 -0.371434
211.891800 2.002886
212.096800 0.383467
212.301800 2.890421
212.506900 0.351848
212.712000 0.390484
212.917100 0.730798
213.122200 0.012589
213.327300 0.495798
213.532500 0.000000
213.737600 0.079091
213.942800 -1.283624
214.148000 -0.404786
214.353200 -2.178977
214.558400 0.558228
214.763600 1.047806
214.968900 0.226280
215.174100 2.627366
215.379400 -2.301030
215.584700 1.255891
215.790000 1.077120
215.995300 1.095926
216.200700 -0.114465
216.406000 2.902003
216.611400 0.550284
216.816800 2.833784
217.022200 -0.455100
217.227600 0.442907
217.433000 -0.188536
217.638400 3.047275
217.843900 2.700704
218.049400 -2.736397
218.254800 3.275081
218.460300 3.008600
218.665900 -0.037859
218.871400 0.440727
219.076900 2.990339
219.282500 0.708093
219.488100 3.047275
219.693600 2.783904
219.899200 0.361845
220.104900 0.302562
220.310500 -0.640288
220.516100 -2.789581
220.721800 0.228704
220.927500 0.785588
221.133200 0.171221
221.338900 0.097863
221.544600 0.127624
221.750300 0.914042
221.956100 0.411867
222.161800 2.338456
222.367600 0.408134
222.573400 -0.075879
222.779200 -2.523746
222.985000 -3.076276
223.190900 0.142969
223.396700 0.000000
223.602600 0.146736
223.808500 0.314793
224.014400 0.303470
224.220300 2.935507
224.426200 0.941180
224.632200 2.727541
224.838100 -0.113470
225.044100 -0.165013
225.250100 -0.157342
225.456100 -0.267432
225.662100 -0.414818
225.868100 -0.423124
226.074200 -0.225478
226.280200 0.000000
226.486300 0.210467
226.692400 -3.012837
226.898500 0.883919
227.104600 2.294466
227.310700 0.190768
227.516900 2.833784
227.723000 -0.553548
227.929200 3.252853
228.135400 0.275476
228.341600 2.622214
228.547800 0.686623
228.754100 0.121367
228.960300 -0.501899
229.166600 -2.866287
229.372900 2.907949
229.579100 0.132819
229.785500 -0.049043
229.991800 -1.687656
230.198100 -0.309524
230.404500 1.963788
230.610800 -0.011888
230.817200 -2.979093
231.023600 0.560007
231.230000 0.019346
231.436400 0.647138
231.642900 0.560139
231.849300 -0.143817
232.055800 0.503450
232.262300 0.471912
232.468800 -0.018682
232.675300 -0.143530
232.881800 -0.266404
233.088400 -0.211094
233.294900 0.959164
233.501500 0.343294
233.708100 -2.089905
233.914700 1.710963
234.121300 -1.944483
234.327900 2.776701
234.534600 2.682145
234.741300 3.097604
234.947900 0.186168
235.154600 0.453407
235.361300 0.580964
235.568000 0.351770
235.774800 2.185637
235.981500 -0.410373
236.188300 -2.945961
236.395100 0.011007
236.601800 -2.089905
236.808700 -0.168421
237.015500 0.528452
237.222300 0.095544
237.429200 0.905454
237.636000 0.103949
237.842900 0.188501
238.049800 -0.050861
238.256700 2.653213
238.463600 -0.119367
238.670600 2.970812
238.877500 0.890125
239.084500 -1.662758
239.291500 0.376923
239.498500 -0.586357
239.705500 -0.406540
239.912500 1.845098
240.119500 -0.908594
240.326600 -0.588543
240.533700 -3.144885
240.740700 -0.232522
240.947800 0.361950
241.154900 3.059185
241.362100 0.086211
241.569200 0.654734
241.776400 2.999131
241.983500 2.783904
242.190700 0.293012
242.397900 -2.768638
242.605100 -0.157663
242.812400 2.587711
243.019600 0.727745
243.226900 -0.176373
243.434100 0.026793
243.641400 1.012121
243.848700 0.142433
244.056000 -2.575188
244.263400 -0.267432
244.470700 1.702574
244.678100 0.122908
244.885400 0.727985
245.092800 0.038692
245.300200 2.357935
245.507600 0.653314
245.715100 0.287217
245.922500 0.159837
246.130000 0.189056
246.337500 0.370641
246.544900 2.396199
246.752400 0.449575
246.960000 0.189353
247.167500 0.586984
247.375000 0.000000
247.582600 -0.114793
247.790200 -0.874233
247.997800 0.143191
248.205400 2.032477
248.413000 -0.093403
248.620600 0.032060
248.828300 0.136355
249.035900 0.455412
249.243600 0.105213
249.451300 1.192490
249.659000 0.782634
249.866700 0.560748
250.074500 0.192918
250.282200 0.025435
250.490000 0.884882
250.697800 0.710235
250.905600 -0.338219
251.113400 0.199147
251.321200 0.059703
251.529000 -0.364312
251.736900 0.513836
251.944700 0.341576
252.152600 0.387586
252.360500 -0.434768
252.568400 -0.020289
252.776300 -0.237544
252.984300 0.351775
253.192200 0.328371
253.400200 0.271302
253.608200 2.599883
253.816200 3.282396
254.024200 0.554675
254.232200 -0.070748
254.440200 -2.898176
254.648300 0.061807
254.856400 2.701568
255.064400 2.775974
255.272500 0.289393
255.480600 0.990885
255.688800 -1.255273
255.896900 0.080805
256.105100 3.284882
256.313200 -0.074553
256.521400 0.108038
256.729600 -0.099115
256.937800 3.171434
257.146000 0.015512
257.354300 -2.344392
257.562500 0.279324
257.770800 -2.649335
257.979100 0.993949
258.187400 0.435844
258.395700 0.559039
258.604000 3.034628
258.812400 0.199747
259.020700 0.511577
259.229100 0.049232
259.437500 -0.095254
259.645900 0.235539
259.854300 -0.049874
260.062700 1.180999
260.271100 2.621176
260.479600 0.195601
260.688100 -0.274031
260.896500 0.407755
261.105000 -0.433841
261.313500 -0.147462
261.522100 3.142702
261.730600 0.128395
261.939200 0.564847
262.147700 0.353407
262.356300 -0.077093
262.564900 -0.199838
262.773500 2.907411
262.982200 1.335059
263.190800 -3.016197
263.399500 0.170596
263.608100 0.313923
263.816800 0.207259
264.025500 2.396199
264.234200 -0.505338
264.442900 0.227004
264.651700 0.144812
264.860400 2.662758
265.069200 0.238239
265.278000 2.990339
265.486800 0.817529
265.695600 -0.463035
265.904400 0.255370
266.113300 2.599883
266.322100 0.103815
266.531000 2.294466
266.739900 2.294466
266.948800 0.436498
267.157700 0.026860
267.366600 0.600533
267.575500 -0.444937
267.784500 -0.374568
267.993500 2.994757
268.202400 1.192660
268.411400 0.131182
268.620500 2.761176
268.829500 0.153760
269.038500 -0.754670
269.247600 0.294202
269.456600 -0.692968
269.665700 0.441926
269.874800 0.045280
270.083900 0.713693
270.293100 -2.385606
270.502200 0.061963
270.711400 2.127105
270.920500 0.183477
271.129700 2.985426
271.338900 0.136518
271.548100 0.196421
271.757300 0.230854
271.966600 2.890421
272.175800 0.627302
272.385100 0.802166
272.594400 0.320504
272.803700 0.677210
273.013000 0.046524
273.222300 2.994757
273.431600 0.361105
273.641000 0.533089
273.850400 -0.219598
274.059700 2.945961
274.269100 0.343228
274.478500 2.950851
274.688000 1.146128
274.897400 0.776382
275.106900 -1.116506
275.316300 0.180897
275.525800 0.516843
275.735300 0.000000
275.944800 0.152091
276.154300 2.662758
276.363900 1.288561
276.573400 2.840106
276.783000 1.096440
276.992600 2.846955
277.202200 -0.044040
277.411800 -0.437185
277.621400 2.727541
277.831000 0.585841
278.040700 0.130262
278.250300 0.106711
278.460000 -0.046764
278.669700 2.980458
278.879400 -0.449555
279.089100 -0.033129
279.298900 0.379701
279.508600 3.025715
279.718400 0.233752
279.928100 -2.523746
280.137900 3.215373
280.347700 0.010243
280.557600 -0.024480
280.767400 0.275589
280.977200 -0.063351
281.187100 -2.614897
281.397000 0.594361
281.606900 -2.956168
281.816800 0.176397
282.026700 2.357935
282.236600 0.047949
282.446600 0.810336
282.656500 0.000000
282.866500 2.791691
283.076500 0.469225
283.286500 0.395946
283.496500 0.670764
283.706500 2.907411
283.916600 0.118876
284.126600 -2.029384
284.336700 -0.055874
284.546800 2.587711
284.756900 0.426925
284.967000 0.213479
285.177100 0.458638
285.387300 -2.158362
285.597400 0.171935
285.807600 0.536040
286.017800 0.624000
286.228000 -2.532754
286.438200 0.170566
286.648400 2.940516
286.858700 0.386768
287.068900 0.851937
287.279200 0.233114
287.489500 2.414973
287.699800 0.375062
287.910100 0.030112
288.120400 0.211584
288.330800 -0.346918
288.541100 1.022540
288.751500 2.217484
288.961900 -0.145937
289.172300 -2.985426
289.382700 0.234083
289.593100 -0.202327
289.803500 -2.988559
290.014000 2.980458
290.224500 0.508956
290.434900 -2.798651
290.645400 -0.144492
290.855900 -0.196207
291.066500 0.376751
291.277000 -0.019135
291.487500 0.465442
291.698100 -0.223031
291.908700 -0.290953
292.119300 1.554035
292.329900 0.080126
292.540500 2.251233
292.751100 -0.301750
292.961800 -2.995196
293.172400 0.761501
293.383100 -2.113943
293.593800 0.015664
293.804500 -0.217946
294.015200 0.465910
294.226000 -2.583199
294.436700 -0.245199
294.647500 0.776382
294.858200 -0.006531
295.069000 0.347808
295.279800 -0.305391
295.490600 0.000000
295.701500 0.124181
295.912300 0.476404
296.123200 0.105026
296.334000 1.464059
296.544900 0.493987
296.755800 0.384568
296.966700 0.215100
297.177700 1.454599
297.388600 2.935003
297.599500 -0.407181
297.810500 0.111165
298.021500 0.070400
298.232500 0.071779
298.443500 1.690196
298.654500 0.585360
298.865600 3.125806
299.076600 0.022331
299.287700 -2.550228
299.498800 0.119777
299.709900 2.902003
299.921000 0.675809
300.132100 1.260469
300.343200 0.387921
300.554400 2.769377
300.765500 -0.147603
300.976700 0.000000
301.187900 0.088708
301.399100 0.039795
301.610300 0.335577
301.821500 0.418778
302.032800 0.368091
302.244100 3.017451
302.455300 1.271530
302.666600 3.063333
302.877900 0.276952
303.089200 -0.400220
303.300600 0.230690
303.511900 1.144737
303.723300 0.469434
303.934600 2.884795
304.146000 0.845098
304.357400 -0.433318
304.568800 2.846955
304.780300 0.267493
304.991700 -0.210140
305.203100 -0.458941
305.414600 0.104610
305.626100 -0.712855
305.837600 0.330720
306.049100 0.474944
306.260600 3.051153
306.472200 -0.590811
306.683700 -0.320271
306.895300 -0.480190
307.106900 0.395400
307.318400 0.548907
307.530100 -0.007359
307.741700 0.098610
307.953300 0.161681
308.165000 -2.730782
308.376600 0.273621
308.588300 0.500354
308.800000 -0.179556
309.011700 3.215109
309.223400 -0.080209
309.435100 0.090414
309.646900 0.126616
309.858600 0.098827
310.070400 0.183084
310.282200 -1.495346
310.494000 0.468904
310.705800 0.281712
310.917600 -0.119155
311.129500 0.163412
311.341300 0.438511
311.553200 0.155517
311.765100 0.132356
311.977000 0.429212
312.188900 0.328753
312.400800 -0.060715
312.612700 -0.023392
312.824700 1.347552
313.036600 -0.173271
313.248600 0.558248
313.460600 -0.225226
313.672600 0.203936
313.884600 0.073523
314.096700 0.240048
314.308700 0.404816
314.520800 -0.095475
314.732800 0.158500
314.944900 0.221332
315.157000 -0.004869
315.369200 -0.119430
315.581300 0.046556
315.793400 -0.509053
316.005600 -0.040125
316.217700 0.340833
316.429900 0.472480
316.642100 0.644456
316.854300 -0.002791
317.066600 0.565269
317.278800 0.335792
317.491100 0.535233
317.703300 0.408376
317.915600 0.162588
318.127900 0.441869
318.340200 -0.081085
318.552500 0.049257
318.764900 -0.126982
318.977200 0.065970
319.189600 0.116911
319.401900 0.190031
319.614300 -0.075750
319.826700 0.256781
320.039200 0.460710
320.251600 0.045494
320.464000 0.050477
320.676500 0.168727
320.889000 -0.677319
321.101400 0.247485
321.313900 0.148003
321.526500 0.269072
321.739000 0.238274
321.951500 0.114397
322.164100 -0.213577
322.376600 0.273773
322.589200 0.233492
322.801800 0.001227
323.014400 0.086352
323.227000 -0.010237
323.439700 0.034485
323.652300 0.116991
323.865000 0.139220
324.077700 -0.015459
324.290400 -0.044224
324.503100 0.008252
324.715800 -0.091085
324.928500 -0.006470
325.141200 -0.053576
325.354000 0.310996
325.566800 0.082593
325.779600 0.109072
325.992400 -0.185252
326.205200 0.150583
326.418000 0.135109
326.630800 0.086506
326.843700 0.221500
327.056600 -0.069390
327.269400 -0.057097
327.482300 0.093131
327.695200 -0.026497
327.908200 0.060772
328.121100 0.001990
328.334000 0.095790
328.547000 0.317374
328.760000 0.007572
328.973000 0.227187
329.186000 0.016782
329.399000 0.046761
329.612000 0.098669
329.825100 0.027726
330.038100 -0.058974
330.251200 0.067179
330.464300 0.171159
330.677400 0.143282
330.890500 0.285569
331.103600 0.082111
331.316700 0.200903
331.529900 0.069578
331.743100 -0.009518
331.956200 0.046548
332.169400 0.019248
332.382600 0.009528
332.595900 0.141700
332.809100 0.082191
333.022300 0.005322
333.235600 -0.024352
333.448900 0.003569
333.662200 0.066307
333.875500 0.043495
334.088800 -0.028292
334.302100 0.101932
334.515400 0.132940
334.728800 0.044504
334.942200 -0.034857
335.155500 -0.106753
335.368900 0.045479
335.582300 -0.051175
335.795800 0.148051
336.009200 0.095561
336.222700 0.088630
336.436100 -0.015499
336.649600 0.172390
336.863100 -0.000092
337.076600 0.102549
337.290100 0.062597
337.503600 0.004365
337.717200 0.021938
337.930700 0.045840
338.144300 0.125995
338.357900 -0.093755
338.571500 -0.060741
338.785100 -0.041869
338.998700 -0.027351
339.212400 0.069691
339.426000 0.042456
339.639700 -0.033956
339.853300 0.020441
340.067000 0.061325
340.280700 -0.060027
340.494500 0.075074
340.708200 -0.066635
340.921900 0.046058
341.135700 -0.108131
341.349500 -0.047680
341.563300 -0.039228
341.777100 0.103094
341.990900 0.082745
342.204700 -0.014097
342.418500 0.065570
342.632400 0.080415
342.846300 0.023719
343.060100 -0.089951
343.274000 0.010522
343.487900 0.068632
343.701900 -0.032701
343.915800 -0.002858
344.129700 0.072345
344.343700 -0.019815
344.557700 0.038086
344.771700 -0.039909
344.985700 0.107102
345.199700 0.013430
345.413700 0.137179
345.627700 -0.004695
345.841800 0.065905
346.055900 0.029868
346.269900 0.041211
346.484000 0.103222
346.698100 -0.052319
346.912300 0.022906
347.126400 0.063839
347.340600 0.036794
347.554700 -0.025971
347.768900 -0.011910
347.983100 0.059590
348.197300 0.023964
348.411500 -0.048242
348.625700 -0.024387
348.840000 0.002365
349.054200 0.054979
349.268500 0.087193
349.482800 0.000394
349.697100 -0.019181
349.911400 -0.010235
350.125700 0.018588
350.340000 0.030511
350.554400 0.036531
350.768700 0.046283
350.983100 -0.055030
351.197500 -0.054397
351.411900 0.086261
351.626300 0.040416
351.840700 0.042283
352.055200 -0.024346
352.269600 0.030716
352.484100 0.039374
352.698600 0.070053
352.913100 -0.068815
353.127600 0.059557
353.342100 0.004673
353.556600 0.055993
353.771200 -0.002723
353.985800 0.012745
354.200300 -0.001779
354.414900 0.002411
354.629500 -0.046762
354.844100 0.027287
355.058800 0.042051
355.273400 -0.006035
355.488100 0.014995
355.702700 -0.027336
355.917400 -0.032959
356.132100 0.067066
356.346800 0.013377
356.561500 0.027602
356.776300 0.017008
356.991000 0.039207
357.205800 0.053473
357.420600 -0.022945
357.635300 0.026453
357.850100 0.012280
358.065000 -0.010793
358.279800 -0.027881
358.494600 0.015364
358.709500 0.013836
358.924300 -0.018342
359.139200 0.007444
359.354100 -0.016334
359.569000 -0.017074
359.783900 0.001254
359.998900 -0.038215
360.213800 0.000249
360.428800 0.061767
360.643800 -0.034536
360.858700 -0.070543
361.073700 0.047495
361.288800 0.040971
361.503800 0.006505
361.718800 -0.039151
361.933900 0.007849
362.148900 0.007841
362.364000 -0.024985
362.579100 0.064106
362.794200 -0.020472
363.009300 0.007156
363.224500 0.008902
363.439600 0.013726
363.654800 0.052130
363.869900 -0.020860
364.085100 0.001704
364.300300 -0.013352
364.515500 0.032653
364.730800 0.032772
364.946000 0.012639
365.161200 0.010620
365.376500 0.035439
365.591800 0.011560
365.807100 -0.038896
366.022400 -0.006811
366.237700 0.012666
366.453000 0.060630
366.668400 0.016978
366.883700 -0.005924
367.099100 -0.022093
367.314500 -0.006402
367.529900 0.011575
367.745300 -0.001930
367.960700 0.000460
368.176100 -0.033677
368.391600 0.014957
368.607000 0.026891
368.822500 0.038219
369.038000 0.016379
369.253500 -0.024783
369.469000 0.017972
369.684500 0.011786
369.900100 0.012990
370.115600 -0.053338
370.331200 -0.056972
370.546800 0.000890
370.762400 0.025279
370.978000 -0.011662
371.193600 -0.012954
371.409200 -0.004473
371.624900 0.012785
371.840500 0.068725
372.056200 -0.002186
372.271900 -0.016176
372.487600 0.042386
372.703300 0.009341
372.919000 -0.047424
373.134800 0.019902
373.350500 -0.023762
373.566300 0.021513
373.782000 -0.030407
373.997800 0.018742
374.213600 -0.012848
374.429400 -0.007899
374.645300 0.004247
374.861100 -0.009815
375.077000 -0.020996
375.292800 -0.021791
375.508700 -0.026006
375.724600 0.003437
375.940500 -0.017730
376.156400 -0.011653
376.372400 0.018119
376.588300 0.000105
376.804300 -0.002824
377.020300 0.026610
377.236200 0.024518
377.452200 0.016309
377.668200 -0.005317
377.884300 -0.001262
378.100300 -0.027017
378.316400 0.033457
378.532400 0.002450
378.748500 0.018371
378.964600 0.003504
379.180700 0.007168
379.396800 0.001946
379.612900 -0.018914
379.829100 -0.012396
380.045200 -0.022890
380.261400 0.012018
380.477600 0.021215
380.693800 -0.048568
380.910000 0.029490
381.126200 -0.041857
381.342400 0.016439
381.558700 -0.039893
381.774900 -0.026292
381.991200 -0.029411
382.207500 -0.022312
382.423800 0.014051
382.640100 0.011099
382.856400 -0.002899
383.072800 -0.035375
383.289100 0.018866
383.505500 0.024255
383.721900 -0.002820
383.938200 -0.008327
384.154600 -0.035076
384.371100 -0.015483
384.587500 -0.012237
384.803900 -0.005193
385.020400 -0.021597
385.236800 -0.007506
385.453300 0.006133
385.669800 -0.029163
385.886300 -0.014425
386.102800 -0.017496
386.319400 -0.003461
386.535900 0.001200
386.752500 0.008406
386.969000 -0.030701
387.185600 -0.032205
387.402200 -0.004231
387.618800 -0.012560
387.835500 -0.019835
388.052100 0.013298
388.268700 -0.009604
388.485400 -0.014944
388.702100 0.011443
388.918800 -0.031372
389.135500 0.018662
389.352200 0.002616
389.568900 -0.021331
389.785600 0.001789
390.002400 -0.024028
390.219200 -0.031368
390.435900 0.018483
390.652700 -0.027301
390.869500 0.011106
391.086300 0.010129
391.303200 -0.004056
391.520000 -0.020453
391.736900 -0.017655
391.953700 -0.030238
392.170600 -0.010243
392.387500 -0.018880
392.604400 0.003770
392.821300 -0.023450
393.038300 -0.015724
393.255200 0.001223
393.472200 -0.017646
393.689100 -0.001195
393.906100 -0.031918
394.123100 -0.023619
394.340100 -0.020374
394.557200 -0.023155
394.774200 -0.007957
394.991200 -0.021621
395.208300 -0.022645
395.425400 -0.024994
395.642500 -0.013825
395.859600 -0.004408
396.076700 -0.015368
396.293800 -0.018663
396.510900 0.004538
396.728100 -0.004487
396.945300 0.005195
397.162400 -0.017650
397.379600 -0.012577
397.596800 -0.028690
397.814000 -0.006976
398.031300 0.009719
398.248500 -0.006214
398.465800 0.006072
398.683000 -0.024166
398.900300 -0.018663
399.117600 -0.024894
399.334900 -0.007622
399.552200 -0.006253
399.769600 -0.019509
399.986900 0.000547
400.204300 -0.011616
400.421600 -0.020705
400.639000 0.000403
400.856400 -0.010836
401.073800 -0.037875
401.291200 -0.008357
401.508700 -0.019480
401.726100 0.009622
401.943600 -0.025859
402.161000 -0.012741
402.378500 -0.020198
402.596000 -0.005039
402.813500 -0.018966
403.031000 0.006000
403.248600 -0.010219
403.466100 -0.011491
403.683700 -0.008675
403.901300 -0.013992
404.118900 -0.020552
404.336500 -0.015206
404.554100 -0.020491
404.771700 -0.007514
404.989300 -0.024135
405.207000 -0.002284
405.424600 -0.016892
405.642300 0.005178
405.860000 0.002039
406.077700 -0.019021
406.295400 0.000206
406.513100 -0.012662
406.730900 -0.032024
406.948600 -0.009607
407.166400 0.007859
407.384200 -0.011384
407.602000 -0.030679
407.819800 -0.011762
408.037600 -0.000713
408.255400 -0.012465
408.473300 -0.008926
408.691100 -0.003377
408.909000 -0.016428
409.126900 -0.012196
409.344800 -0.006849
409.562700 -0.030633
409.780600 0.001865
409.998500 -0.009971
410.216500 -0.031594
410.434400 0.003671
410.652400 -0.008079
410.870400 0.008613
411.088400 -0.000720
411.306400 -0.007484
411.524400 0.000837
411.742400 -0.019860
411.960500 -0.002534
412.178500 -0.013383
412.396600 -0.032764
412.614700 -0.013808
412.832800 -0.018548
413.050900 0.006026
413.269000 -0.013388
413.487100 0.002132
413.705300 -0.008996
413.923400 -0.015251
414.141600 -0.013624
414.359800 -0.016707
414.578000 -0.010126
414.796200 -0.026504
415.014400 0.010993
415.232600 -0.018049
415.450900 -0.003194
415.669200 -0.033972
415.887400 0.010031
416.105700 0.009537
416.324000 -0.001318
416.542300 -0.007983
416.760600 -0.015330
416.979000 -0.011712
417.197300 -0.024017
417.415700 -0.022051
417.634100 -0.018858
417.852400 -0.005595
418.070800 -0.008729
418.289300 0.008938
418.507700 -0.022716
418.726100 -0.003981
418.944600 -0.009740
419.163000 -0.034142
419.381500 -0.026319
419.600000 -0.009295
419.818500 -0.008961
420.037000 -0.009592
420.255500 -0.001444
420.474100 0.005787
420.692600 -0.004884
420.911200 -0.011997
421.129800 0.000370
421.348300 -0.004987
421.566900 -0.007678
421.785600 -0.008507
422.004200 -0.007076
422.222800 -0.014608
422.441500 -0.004146
422.660100 -0.023243
422.878800 -0.010487
423.097500 -0.026388
423.316200 -0.011708
423.534900 -0.019691
423.753600 -0.023221
423.972400 -0.006172
424.191100 -0.016203
424.409900 -0.009633
424.628700 -0.015889
424.847500 -0.014877
425.066300 -0.009253
425.285100 -0.011606
425.503900 -0.022806
425.722800 -0.020794
425.941600 -0.010240
426.160500 -0.025736
426.379300 -0.008227
426.598200 -0.024006
426.817100 -0.025291
427.036100 -0.007493
427.255000 -0.016006
427.473900 0.003345
427.692900 0.007769
427.911800 0.006306
428.130800 -0.017939
428.349800 0.001308
428.568800 0.002058
428.787800 -0.015264
429.006800 -0.009425
429.225900 -0.008695
429.444900 -0.005991
429.664000 -0.021658
429.883100 0.006115
430.102200 -0.001686
430.321300 -0.008335
430.540400 -0.014420
430.759500 -0.016897
430.978700 0.001394
431.197800 -0.005730
431.417000 -0.028805
431.636200 -0.021190
431.855300 -0.028081
432.074500 -0.013260
432.293800 -0.011747
432.513000 -0.007606
432.732200 -0.006212
432.951500 -0.007843
433.170700 0.011521
433.390000 -0.004769
433.609300 0.017949
433.828600 0.001825
434.047900 0.003728
434.267300 -0.009763
434.486600 -0.020412
434.705900 -0.025917
434.925300 0.017472
435.144700 -0.012387
435.364100 0.000352
435.583500 -0.011815
435.802900 -0.024287
436.022300 -0.005382
436.241800 -0.011099
436.461200 -0.007591
436.680700 -0.010200
436.900100 -0.007371
437.119600 -0.004962
437.339100 -0.007674
437.558600 -0.006191
437.778200 -0.005257
437.997700 -0.010383
438.217300 -0.019473
438.436800 -0.014788
438.656400 0.004187
438.876000 -0.023972
439.095600 -0.034297
439.315200 -0.017958
439.534800 -0.019599
439.754500 -0.028505
439.974100 0.002460
440.193800 -0.002178
440.413500 0.009379
440.633100 -0.012553
440.852800 0.002878
441.072500 0.015257
441.292300 0.013455
441.512000 0.007399
441.731800 0.005780
441.951500 -0.008062
442.171300 -0.004417
442.391100 -0.018167
442.610900 0.001725
442.830700 -0.011953
443.050500 -0.005302
443.270300 -0.010059
443.490200 -0.033820
443.710100 -0.012314
443.929900 -0.008296
444.149800 -0.004073
444.369700 -0.017455
444.589600 -0.024380
444.809500 -0.004030
445.029500 0.002103
445.249400 -0.017655
445.469400 -0.001425
445.689400 -0.016910
445.909300 -0.012725
446.129300 0.000665
446.349300 -0.004290
446.569400 -0.003727
446.789400 -0.005650
447.009400 0.007826
447.229500 -0.023068
447.449600 -0.010708
447.669600 -0.016040
447.889700 -0.014393
448.109800 -0.027309
448.330000 -0.014265
448.550100 0.013334
448.770200 -0.017342
448.990400 -0.003474
449.210600 -0.005951
449.430700 -0.005778
449.650900 -0.000497
449.871100 -0.011631
450.091400 -0.014606
450.311600 0.002436
450.531800 -0.022684
450.752100 -0.009023
450.972400 -0.034902
451.192600 -0.015228
451.412900 0.007089
451.633200 -0.010841
451.853500 -0.012300
452.073900 -0.001284
452.294200 -0.009212
452.514600 -0.004501
452.734900 -0.027410
452.955300 -0.028549
453.175700 -0.019758
453.396100 -0.001467
453.616500 -0.030526
453.836900 -0.004743
454.057400 -0.019179
454.277800 -0.026061
454.498300 -0.017633
454.718800 -0.016520
454.939300 -0.008641
455.159700 -0.012296
455.380300 -0.020829
455.600800 -0.029611
455.821300 -0.025909
456.041900 -0.013944
456.262400 -0.011151
456.483000 0.002198
456.703600 -0.028554
456.924200 -0.013904
457.144800 -0.028979
457.365400 -0.018451
457.586000 -0.008426
457.806700 -0.000622
458.027400 -0.006198
458.248000 -0.018051
458.468700 -0.006384
458.689400 -0.016499
458.910100 -0.016070
459.130800 0.003029
459.351600 -0.023982
459.572300 -0.012838
459.793100 -0.011389
460.013800 -0.014974
460.234600 -0.008826
460.455400 -0.005724
460.676200 -0.023815
460.897000 -0.012130
461.117800 -0.001704
461.338700 -0.008426
461.559500 -0.006854
461.780400 -0.048018
462.001300 -0.014682
462.222200 -0.044567
462.443100 -0.005067
462.664000 -0.017053
462.884900 -0.047775
463.105900 -0.017137
463.326800 0.000581
463.547800 0.000528
463.768700 0.007679
463.989700 -0.000735
464.210700 -0.019172
464.431700 -0.011279
464.652800 -0.006398
464.873800 0.002515
465.094800 -0.013080
465.315900 -0.012396
465.537000 -0.001804
465.758100 0.002327
465.979200 -0.007803
466.200300 -0.020692
466.421400 -0.018968
466.642500 -0.006078
466.863700 -0.003799
467.084800 -0.018244
467.306000 -0.016558
467.527200 -0.001030
467.748400 -0.006357
467.969600 0.002598
468.190800 0.006485
468.412000 0.000654
468.633300 -0.008391
468.854500 -0.009142
469.075800 -0.014755
469.297000 -0.014148
469.518300 -0.015809
469.739600 -0.021579
469.961000 -0.050651
470.182300 -0.016787
470.403600 -0.013874
470.625000 -0.011141
470.846300 0.002571
471.067700 -0.017701
471.289100 0.006140
471.510500 -0.027647
471.731900 -0.017926
471.953300 -0.030659
472.174800 -0.002691
472.396200 -0.028130
472.617700 0.011420
472.839100 -0.001735
473.060600 0.009515
473.282100 0.003652
473.503600 -0.006540
473.725100 0.016121
473.946700 -0.000399
474.168200 -0.004294
474.389800 -0.012219
474.611300 0.000384
474.832900 -0.007800
475.054500 -0.008598
475.276100 -0.005511
475.497700 -0.036694
475.719300 -0.024339
475.941000 -0.015961
476.162600 -0.002524
476.384300 -0.014360
476.606000 -0.024152
476.827700 -0.010079
477.049400 -0.010517
477.271100 -0.014288
477.492800 -0.004787
477.714500 -0.022798
477.936300 0.007467
478.158000 -0.013801
478.379800 0.007723
478.601600 -0.006049
478.823400 -0.001560
479.045200 -0.011761
479.267000 -0.019214
479.488800 -0.008214
479.710700 -0.015653
479.932500 -0.020044
480.154400 -0.000833
480.376300 -0.015721
480.598200 0.007037
480.820100 -0.017654
481.042000 -0.009235
481.263900 -0.008510
481.485900 -0.010372
481.707800 -0.000080
481.929800 -0.005667
482.151700 -0.006158
482.373700 -0.014038
482.595700 -0.017524
482.817700 -0.000377
483.039800 -0.005449
483.261800 -0.003469
483.483800 0.009723
483.705900 -0.018186
483.928000 -0.015792
484.150100 -0.003142
484.372100 0.002657
484.594300 -0.002217
484.816400 -0.019224
485.038500 -0.003885
485.260600 -0.008415
485.482800 0.028699
485.705000 0.059042
485.927100 0.031233
486.149300 -0.004464
486.371500 -0.038531
486.593700 -0.041490
486.816000 -0.022798
487.038200 -0.028597
487.260500 -0.023936
487.482700 -0.035889
487.705000 -0.038519
487.927300 -0.021471
488.149600 -0.013032
488.371900 -0.011779
488.594200 -0.016450
488.816500 -0.020938
489.038900 -0.007910
489.261200 0.000424
489.483600 -0.019499
489.706000 -0.024957
489.928400 -0.009628
490.150800 -0.004223
490.373200 -0.016445
490.595600 -0.014808
490.818000 -0.006808
491.040500 -0.005328
491.263000 -0.020989
491.485400 -0.001588
491.707900 0.002352
491.930400 0.004795
492.152900 -0.021253
492.375500 0.003363
492.598000 -0.005459
492.820500 -0.002304
493.043100 0.006327
493.265700 0.001430
493.488200 0.001554
493.710800 -0.028625
493.933400 0.007212
494.156100 -0.015517
494.378700 -0.010591
494.601300 -0.002801
494.824000 0.006486
495.046600 -0.020960
495.269300 -0.011868
495.492000 -0.007723
495.714700 -0.010036
495.937400 -0.008908
496.160100 0.009409
496.382900 -0.001352
496.605600 0.000015
496.828400 -0.004304
497.051100 -0.010488
497.273900 -0.001154
497.496700 -0.009166
497.719500 -0.014000
497.942300 -0.003121
498.165200 -0.002783
498.388000 0.016042
498.610900 -0.014993
498.833700 -0.000693
499.056600 -0.013369
499.279500 -0.007892
499.502400 -0.005604
499.725300 0.008100
499.948200 -0.012339
500.171200 -0.013672
500.394100 -0.004414
500.617100 -0.011709
500.840000 -0.007847
501.063000 -0.003591
501.286000 0.014053
501.509000 -0.014797
501.732000 -0.010465
501.955100 -0.020767
502.178100 -0.012573
502.401200 0.001879
502.624200 -0.008371
502.847300 -0.022972
503.070400 -0.015230
503.293500 -0.011793
503.516600 -0.025831
503.739700 -0.010047
503.962800 -0.020813
504.186000 -0.019552
504.409200 -0.001214
504.632300 -0.008433
504.855500 0.003353
505.078700 -0.001306
505.301900 -0.004196
505.525100 0.010235
505.748300 -0.006624
505.971600 -0.016931
506.194800 0.006819
506.418100 -0.004111
506.641400 -0.012946
506.864700 -0.023025
507.088000 -0.036089
507.311300 -0.025092
507.534600 -0.016488
507.757900 0.007063
507.981300 -0.000603
508.204600 -0.004083
508.428000 0.003314
508.651400 -0.023589
508.874800 -0.010487
509.098200 0.002836
509.321600 -0.023640
509.545000 -0.001701
509.768500 -0.000852
509.991900 -0.000336
510.215400 -0.001515
510.438800 -0.021949
510.662300 -0.010902
510.885800 -0.019575
511.109300 0.001617
511.332900 0.006152
511.556400 -0.012587
511.779900 0.010165
512.003500 0.001276
512.227000 -0.001068
512.450600 -0.032810
512.674200 -0.003723
512.897800 -0.008129
513.121400 0.007856
513.345100 -0.018738
513.568700 -0.022024
513.792300 -0.026139
514.016000 -0.011270
514.239700 0.005079
514.463400 -0.017141
514.687100 -0.022774
514.910800 -0.012649
515.134500 -0.005257
515.358200 0.006631
515.581900 -0.001618
515.805700 0.010999
516.029500 0.015827
516.253200 -0.008426
516.477000 0.008321
516.700800 -0.002849
516.924600 -0.008810
517.148500 -0.022123
517.372300 -0.010106
517.596100 -0.018031
517.820000 0.015742
518.043900 0.011992
518.267700 0.009163
518.491600 -0.012751
518.715500 -0.012343
518.939500 0.015377
519.163400 -0.016419
519.387300 0.013243
519.611300 -0.002492
519.835200 -0.013040
520.059200 -0.006521
520.283200 -0.009387
520.507200 -0.009301
520.731200 -0.007734
520.955200 0.014953
521.179200 -0.010247
521.403300 -0.007586
521.627300 -0.050894
521.851400 -0.020806
522.075500 -0.008227
522.299600 0.000284
522.523700 -0.022722
522.747800 -0.027112
522.971900 -0.004906
523.196000 -0.002599
523.420200 -0.006947
523.644300 -0.029184
523.868500 0.002567
524.092700 -0.011690
524.316900 -0.009222
524.541100 -0.007251
524.765300 -0.020011
524.989500 0.003638
525.213800 -0.012975
525.438000 -0.002139
525.662300 0.015862
525.886500 -0.007165
526.110800 -0.012239
526.335100 -0.008225
526.559400 -0.033461
526.783700 -0.004012
527.008100 -0.001292
527.232400 -0.025091
527.456800 -0.009873
527.681100 -0.019932
527.905500 -0.020765
528.129900 -0.001802
528.354300 -0.017982
528.578700 -0.002110
528.803100 -0.021726
529.027600 -0.015805
529.252000 0.006303
529.476500 0.006946
529.700900 -0.031214
529.925400 -0.007510
530.149900 -0.015892
530.374400 0.011018
530.598900 -0.007783
530.823400 0.021037
531.048000 -0.012417
531.272500 -0.008379
531.497100 -0.004912
531.721700 -0.002952
531.946200 0.008027
532.170800 -0.025939
532.395400 -0.028173
532.620000 0.003498
532.844700 0.001179
533.069300 0.002319
533.294000 -0.001379
533.518600 -0.018002
533.743300 -0.027789
533.968000 0.005264
534.192700 -0.013438
534.417400 0.006350
534.642100 0.006166
534.866800 -0.012065
535.091600 -0.007076
535.316300 -0.019285
535.541100 -0.012374
535.765900 -0.025887
535.990700 0.007256
536.215500 -0.022243
536.440300 -0.014760
536.665100 -0.010799
536.889900 -0.015361
537.114800 -0.036601
537.339600 -0.021782
537.564500 0.014592
537.789400 -0.002331
538.014300 0.004435
538.239200 -0.010177
538.464100 -0.002751
538.689000 -0.008747
538.913900 -0.016969
539.138900 -0.018598
539.363800 -0.010556
539.588800 -0.015687
539.813800 -0.000358
540.038800 -0.008298
540.263800 -0.020430
540.488800 -0.009144
540.713800 -0.017267
540.938900 -0.019912
541.163900 -0.006948
541.389000 -0.032568
541.614000 -0.011217
541.839100 -0.023156
542.064200 -0.003719
542.289300 0.004704
542.514400 -0.009079
542.739600 -0.005004
542.964700 -0.000496
543.189900 -0.002659
543.415000 0.004145
543.640200 -0.003010
543.865400 0.008019
544.090600 -0.016665
544.315800 -0.007237
544.541000 0.001247
544.766200 -0.010305
544.991500 -0.006262
545.216700 -0.006753
545.442000 -0.002722
545.667300 -0.003759
545.892600 -0.017286
546.117900 -0.014248
546.343200 0.008907
546.568500 -0.002678
546.793800 -0.013558
547.019200 -0.004175
547.244500 0.004357
547.469900 -0.002212
547.695300 -0.005009
547.920600 0.006224
548.146000 -0.001802
548.371500 -0.000730
548.596900 -0.009689
548.822300 -0.008518
549.047800 -0.012290
549.273200 -0.020004
549.498700 -0.036741
549.724200 -0.000418
549.949600 -0.015219
550.175100 -0.007391
550.400700 -0.044875
550.626200 -0.001827
550.851700 0.012964
551.077300 -0.009903
551.302800 -0.004217
551.528400 -0.013212
551.754000 0.015928
551.979600 0.012957
552.205200 -0.009101
552.430800 -0.002075
552.656400 -0.012968
552.882000 -0.002760
553.107700 0.005632
553.333300 -0.006726
553.559000 -0.012643
553.784700 -0.001998
554.010400 0.003499
554.236100 -0.012114
554.461800 0.002401
554.687500 -0.015683
554.913200 -0.008629
555.139000 -0.015818
555.364800 0.007303
555.590500 -0.001007
555.816300 -0.022646
556.042100 -0.007008
556.267900 -0.010363
556.493700 -0.006010
556.719500 -0.027835
556.945400 -0.003161
557.171200 -0.011561
557.397100 -0.005340
557.623000 -0.005070
557.848800 -0.017611
558.074700 -0.006416
558.300600 -0.017931
558.526600 -0.021176
558.752500 -0.010965
558.978400 -0.019916
559.204400 -0.013697
559.430300 -0.012276
559.656300 -0.008182
559.882300 -0.009790
560.108300 -0.008249
560.334300 -0.011060
560.560300 -0.000527
560.786300 -0.003590
561.012400 -0.003193
561.238400 -0.020680
561.464500 -0.018711
561.690500 -0.020186
561.916600 -0.006552
562.142700 -0.024696
562.368800 -0.009663
562.594900 -0.004948
562.821100 -0.005861
563.047200 -0.010838
563.273300 -0.003210
563.499500 -0.023447
563.725700 -0.009410
563.951900 -0.012494
564.178100 -0.009645
564.404300 -0.000246
564.630500 0.002663
564.856700 -0.005835
565.082900 -0.002493
565.309200 -0.011615
565.535500 -0.008107
565.761700 -0.023074
565.988000 -0.014113
566.214300 -0.021542
566.440600 -0.023962
566.666900 -0.018082
566.893200 -0.005083
567.119600 -0.003458
567.345900 -0.001025
567.572300 -0.005143
567.798700 -0.019948
568.025000 -0.018451
568.251400 -0.000278
568.477800 -0.002771
568.704300 -0.006170
568.930700 -0.002485
569.157100 0.005806
569.383600 -0.011225
569.610000 -0.002998
569.836500 0.003235
570.063000 -0.010507
570.289500 -0.010507
570.516000 -0.005908
570.742500 -0.018537
570.969000 0.000076
571.195600 -0.002041
571.422100 -0.010844
571.648700 -0.006797
571.875200 -0.004493
572.101800 -0.007095
572.328400 -0.007562
572.555000 -0.015833
572.781600 -0.014473
573.008200 -0.006167
573.234900 0.011097
573.461500 0.006198
573.688200 0.002981
573.914900 -0.001532
574.141500 -0.002249
574.368200 -0.003319
574.594900 -0.010686
574.821600 -0.009192
575.048400 -0.004726
575.275100 -0.002280
575.501800 -0.005496
575.728600 -0.013577
575.955400 -0.018245
576.182100 0.002798
576.408900 0.001222
576.635700 0.000897
576.862600 -0.001199
577.089400 -0.008581
577.316200 -0.004734
577.543100 0.004441
577.769900 0.006781
577.996800 0.001949
578.223700 -0.010696
578.450500 -0.014934
578.677400 -0.010478
578.904400 -0.017284
579.131300 -0.017555
579.358200 -0.008761
579.585100 -0.002111
579.812100 -0.000335
580.039100 -0.011945
580.266000 -0.007395
580.493000 -0.014484
580.720000 -0.012649
580.947000 -0.010736
581.174100 0.010742
581.401100 0.015443
581.628100 0.001997
581.855200 -0.016021
582.082200 -0.010278
582.309300 -0.015628
582.536400 -0.023216
582.763500 -0.027424
582.990600 -0.026477
583.217700 -0.029239
583.444900 -0.025751
583.672000 -0.016245
583.899100 -0.015261
584.126300 -0.010566
584.353500 -0.006460
584.580700 -0.010164
584.807900 0.006612
585.035100 0.006333
585.262300 0.008283
585.489500 -0.001914
585.716700 -0.014711
585.944000 -0.011588
586.171300 -0.017947
586.398500 -0.018410
586.625800 -0.012488
586.853100 -0.010121
587.080400 -0.006596
587.307700 -0.010446
587.535000 -0.010252
587.762400 -0.012267
587.989700 -0.022134
588.217100 -0.014506
588.444500 -0.012683
588.671800 -0.016740
588.899200 -0.018191
589.126600 -0.025760
589.354000 -0.011936
589.581500 -0.017875
589.808900 -0.010990
590.036300 -0.006985
590.263800 -0.020246
590.491300 -0.015094
590.718700 -0.018134
590.946200 -0.010089
591.173700 -0.013210
591.401200 -0.005178
591.628800 0.003832
591.856300 -0.009133
592.083800 -0.010904
592.311400 -0.009177
592.538900 0.011685
592.766500 0.021082
592.994100 0.005594
593.221700 0.001747
593.449300 -0.004408
593.676900 -0.012455
593.904600 -0.006149
594.132200 -0.015543
594.359800 -0.015336
594.587500 -0.009157
594.815200 -0.006394
595.042900 0.004642
595.270500 0.000682
595.498300 -0.011247
595.726000 -0.010085
595.953700 -0.012837
596.181400 -0.014830
596.409200 -0.014403
596.636900 -0.005091
596.864700 0.002009
597.092500 0.000786
597.320300 0.003676
597.548100 0.001936
597.775900 -0.001382
598.003700 -0.004748
598.231500 -0.002672
598.459400 0.003578
598.687200 0.017126
598.915100 0.018673
599.143000 0.009438
599.370900 0.001786
599.598800 -0.011091
599.826700 0.002913
600.054600 0.003015
600.282500 -0.003514
600.510500 -0.009422
600.738400 -0.010317
600.966400 -0.008813
601.194400 -0.009122
601.422300 -0.017421
601.650300 -0.020578
601.878300 -0.014955
602.106400 -0.004575
602.334400 -0.002077
602.562400 -0.002104
602.790500 0.003779
603.018500 -0.008871
603.246600 0.004520
603.474700 0.000527
603.702800 -0.002043
603.930900 -0.000469
604.159000 -0.001967
604.387100 -0.003966
604.615200 -0.012547
604.843400 -0.008145
605.071500 -0.002019
605.299700 -0.005264
605.527900 -0.002997
605.756100 0.003825
605.984300 -0.012158
606.212500 -0.018458
606.440700 -0.026101
606.668900 -0.017347
606.897200 -0.012570
607.125400 -0.009890
607.353700 -0.005936
607.581900 -0.005911
607.810200 -0.012864
608.038500 -0.007596
608.266800 -0.018208
608.495100 -0.019051
608.723500 -0.019730
608.951800 -0.008863
609.180100 -0.018671
609.408500 -0.009253
609.636900 -0.010500
609.865300 -0.003001
610.093600 0.005704
610.322000 -0.001379
610.550500 -0.014726
610.778900 -0.007011
611.007300 -0.006042
611.235700 -0.005781
611.464200 0.003037
611.692700 -0.004929
611.921100 -0.004877
612.149600 -0.001380
612.378100 0.001004
612.606600 -0.005697
612.835100 -0.003775
613.063700 -0.003932
613.292200 -0.006328
613.520800 -0.005980
613.749300 -0.008326
613.977900 0.004248
614.206500 -0.003676
614.435100 -0.003732
614.663700 -0.007219
614.892300 -0.007499
615.120900 -0.009090
615.349500 0.013310
615.578200 -0.002801
615.806800 -0.004709
616.035500 -0.019071
616.264200 -0.013278
616.492900 -0.009769
616.721600 -0.003759
616.950300 -0.004581
617.179000 0.000924
617.407700 -0.008264
617.636500 -0.006918
617.865200 0.000530
618.094000 -0.002195
618.322700 -0.003881
618.551500 -0.021974
618.780300 -0.026800
619.009100 -0.009704
619.237900 -0.002664
619.466700 0.001380
619.695600 -0.009111
619.924400 -0.002962
620.153300 0.001506
620.382100 -0.008384
620.611000 -0.014819
620.839900 -0.024944
621.068800 -0.018714
621.297700 -0.016672
621.526600 -0.013279
621.755600 -0.003944
621.984500 0.005896
622.213500 -0.006037
622.442400 -0.010590
622.671400 -0.003387
622.900400 -0.007176
623.129400 0.004267
623.358400 0.003831
623.587400 -0.008512
623.816400 -0.024321
624.045400 -0.008625
624.274500 -0.000548
624.503500 -0.007426
624.732600 -0.020573
624.961700 -0.006145
625.190800 -0.021168
625.419900 -0.022498
625.649000 -0.007923
625.878100 -0.001947
626.107200 -0.018450
626.336400 -0.010822
626.565500 -0.003402
626.794700 -0.005767
627.023800 -0.012487
627.253000 -0.008189
627.482200 -0.014603
627.711400 -0.002053
627.940600 0.002914
628.169800 -0.023216
628.399100 -0.011566
628.628300 -0.014555
628.857600 -0.016385
629.086800 0.010928
629.316100 -0.009191
629.545400 -0.007937
629.774700 -0.005852
630.004000 -0.005234
630.233300 -0.005784
630.462600 0.002526
630.692000 -0.009430
630.921300 -0.010808
631.150700 -0.011413
631.380100 -0.009256
631.609400 0.004781
631.838800 0.005774
632.068200 -0.005484
632.297600 -0.009533
632.527100 -0.016328
632.756500 -0.017507
632.985900 -0.020017
633.215400 0.001214
633.444800 -0.011323
633.674300 0.007642
633.903800 -0.020763
634.133300 0.004613
634.362800 -0.027902
634.592300 -0.007834
634.821800 -0.014347
635.051400 0.006758
635.280900 -0.014805
635.510500 -0.030417
635.740000 0.004733
635.969600 0.004043
636.199200 0.000720
636.428800 -0.003153
636.658400 0.000880
636.888000 -0.024583
637.117700 -0.013370
637.347300 -0.013589
637.577000 0.003656
637.806600 0.003335
638.036300 0.006591
638.266000 -0.018595
638.495700 0.000531
638.725400 0.001381
638.955100 -0.018959
639.184800 -0.019360
639.414500 0.001494
639.644300 -0.023148
639.874000 -0.017042
640.103800 -0.021205
640.333600 -0.005897
640.563300 -0.031536
640.793100 0.002276
641.022900 -0.006210
641.252800 -0.010635
641.482600 0.001773
641.712400 -0.003151
641.942300 -0.016620
642.172100 0.001498
642.402000 -0.016572
642.631900 -0.026426
642.861700 -0.015676
643.091600 0.004189
643.321600 0.001235
643.551500 -0.043201
643.781400 0.001028
644.011300 -0.013532
644.241300 -0.013060
644.471200 -0.010714
644.701200 -0.026077
644.931200 0.008266
645.161200 -0.010118
645.391200 -0.000748
645.621200 0.007557
645.851200 -0.034451
646.081200 -0.035028
646.311300 0.005670
646.541300 0.024834
646.771400 -0.036657
647.001500 0.004626
647.231600 -0.014360
647.461600 0.027907
647.691800 0.004574
647.921900 -0.017567
648.152000 -0.002013
648.382100 -0.007334
648.612300 0.007246
648.842400 0.001397
649.072600 0.015218
649.302800 -0.024941
649.532900 -0.000800
649.763100 -0.022064
649.993300 -0.019477
650.223600 -0.000454
650.453800 -0.023426
650.684000 -0.013566
650.914300 -0.017393
651.144500 0.008495
651.374800 0.011665
651.605100 -0.001357
651.835400 0.002361
652.065700 0.003465
652.296000 -0.012302
652.526300 -0.018058
652.756600 -0.019560
652.987000 -0.015420
653.217300 -0.012642
653.447700 0.012978
653.678000 -0.011846
653.908400 0.002079
654.138800 0.018734
654.369200 0.022455
654.599600 0.017266
654.830000 0.022416
655.060500 0.077584
655.290900 0.124055
655.521300 0.128382
655.751800 0.087146
655.982300 0.005193
656.212800 0.000974
656.443300 0.001458
656.673800 0.001232
656.904300 0.002850
657.134800 -0.007349
657.365300 -0.024286
657.595900 -0.012280
657.826400 -0.010327
658.057000 -0.000819
658.287500 -0.001857
658.518100 -0.009512
658.748700 -0.000474
658.979300 0.007633
659.209900 -0.017119
659.440600 -0.039792
659.671200 -0.069454
659.901800 -0.095079
660.132500 -0.083292
660.363200 -0.048395
660.593800 -0.021679
660.824500 -0.023255
661.055200 -0.009713
661.285900 0.007128
661.516600 -0.013935
661.747400 -0.012878
661.978100 -0.023429
662.208800 0.024422
662.439600 0.022214
662.670400 0.033008
662.901100 0.029631
663.131900 0.019170
663.362700 -0.017494
663.593500 0.044049
663.824300 -0.005593
664.055200 -0.019226
664.286000 -0.006826
664.516800 0.020363
664.747700 0.018150
664.978600 0.006804
665.209400 0.007205
665.440300 0.029368
665.671200 -0.009351
665.902100 0.011178
666.133000 -0.008187
666.364000 -0.016689
666.594900 -0.001214
666.825900 0.000462
667.056800 0.009939
667.287800 -0.005615
667.518800 -0.000375
667.749700 -0.003373
667.980700 -0.005680
668.211700 -0.015372
668.442800 0.001065
668.673800 0.022925
668.904800 0.012097
669.135900 0.022302
669.366900 -0.001073
669.598000 -0.039365
669.829100 0.006415
670.060200 -0.007819
670.291300 0.017854
670.522400 -0.016082
670.753500 0.004699
670.984600 -0.018417
671.215700 0.025133
671.446900 0.028963
671.678100 0.013071
671.909200 0.010616
672.140400 0.017019
672.371600 -0.010156
672.602800 -0.006753
672.834000 -0.013740
673.065200 -0.025122
673.296400 -0.030472
673.527700 -0.001334
673.758900 -0.027986
673.990200 0.007071
674.221400 0.002201
674.452700 -0.015254
674.684000 -0.015445
674.915300 0.032846
675.146600 0.014009
675.377900 -0.009593
675.609300 -0.006988
675.840600 0.007513
676.071900 0.002891
676.303300 -0.008593
676.534700 -0.027089
676.766100 -0.001664
676.997400 -0.002739
677.228800 -0.017005
677.460200 0.004250
677.691700 0.003032
677.923100 -0.002284
678.154500 -0.001161
678.386000 -0.019403
678.617400 -0.004702
678.848900 0.004349
679.080400 0.000749
679.311900 0.011928
679.543400 -0.004349
679.774900 0.006085
680.006400 0.021742
680.237900 -0.003948
680.469400 0.007210
680.701000 0.001283
680.932500 0.008783
681.164100 0.004151
681.395700 0.010169
681.627300 0.019450
681.858900 -0.001300
682.090500 0.001589
682.322100 -0.020201
682.553700 -0.016678
682.785400 -0.013235
683.017000 0.013357
683.248700 0.003783
683.480300 -0.002286
683.712000 -0.024505
683.943700 -0.012872
684.175400 0.003481
684.407100 0.031767
684.638800 0.011778
684.870500 0.018827
685.102300 0.012001
685.334000 0.000079
685.565800 0.014749
685.797500 0.005632
686.029300 -0.005161
686.261100 0.022343
686.492900 -0.009784
686.724700 0.002496
686.956500 -0.011811
687.188300 0.009518
687.420200 0.005079
687.652000 -0.002998
687.883800 -0.018786
688.115700 -0.005318
688.347600 -0.005387
688.579500 -0.012994
688.811400 -0.005639
689.043300 -0.002509
689.275200 0.002204
689.507100 0.007848
689.739000 -0.007203
689.971000 0.005406
690.202900 -0.000161
690.434900 -0.005517
690.666900 0.004254
690.898800 0.008503
691.130800 0.021165
691.362800 -0.002673
691.594800 0.002215
691.826900 0.006668
692.058900 0.007697
692.290900 0.021442
692.523000 0.000986
692.755000 0.013377
692.987100 -0.004867
693.219200 0.005454
693.451300 0.003168
693.683400 -0.006931
693.915500 -0.017664
694.147600 -0.011563
694.379700 -0.011438
694.611900 0.005247
694.844000 0.006735
695.076200 -0.014137
695.308300 0.013337
695.540500 -0.003060
695.772700 -0.035003
696.004900 0.017397
696.237100 0.001865
696.469300 -0.012589
696.701600 0.022191
696.933800 0.010232
697.166000 -0.012006
697.398300 0.014951
697.630600 0.005907
697.862800 0.020698
698.095100 0.030508
698.327400 -0.008651
698.559700 0.000387
698.792000 -0.014241
699.024300 -0.009508
699.256700 -0.003875
699.489000 -0.004097
699.721400 0.007634
699.953700 -0.018836
700.186100 -0.010661
700.418500 -0.004509
700.650900 0.016205
700.883300 -0.005412
701.115700 0.012109
701.348100 -0.020103
701.580600 -0.003213
701.813000 0.014058
702.045400 -0.011779
702.277900 0.020809
702.510400 0.003168
702.742900 -0.021694
702.975300 -0.010157
703.207800 -0.000526
703.440300 0.003225
703.672900 0.009701
703.905400 -0.018407
704.137900 -0.000934
704.370500 0.001437
704.603000 -0.009696
704.835600 -0.007882
705.068200 -0.043693
705.300800 0.002759
705.533400 -0.002578
705.766000 0.007051
705.998600 -0.006300
706.231200 0.004822
706.463800 0.029135
706.696500 0.036325
706.929100 0.006043
707.161800 -0.021892
707.394500 0.003773
707.627200 0.006885
707.859900 0.021575
708.092600 0.011661
708.325300 -0.007593
708.558000 -0.001712
708.790700 -0.004520
709.023500 0.003568
709.256200 -0.010273
709.489000 -0.010079
709.721700 -0.023143
709.954500 -0.018941
710.187300 -0.015391
710.420100 0.012182
710.652900 -0.017543
710.885700 -0.017370
711.118600 -0.016036
711.351400 -0.031946
711.584200 -0.004084
711.817100 -0.006090
712.050000 -0.013692
712.282800 -0.012437
712.515700 0.022119
712.748600 0.000703
712.981500 -0.032673
713.214400 0.021814
713.447400 -0.014917
713.680300 -0.004315
713.913200 -0.010687
714.146200 -0.007655
714.379100 -0.019004
714.612100 0.009400
714.845100 0.009213
715.078100 -0.004033
715.311100 -0.016872
715.544100 -0.013205
715.777100 -0.015162
716.010200 -0.010003
716.243200 -0.047375
716.476200 0.010006
716.709300 0.000811
716.942400 -0.007122
717.175400 -0.016212
717.408500 -0.011700
717.641600 -0.023621
717.874700 0.002193
718.107800 0.005594
718.341000 0.007090
718.574100 -0.027957
718.807200 -0.001872
719.040400 0.012439
719.273600 0.000440
719.506700 -0.003395
719.739900 -0.012878
719.973100 -0.016848
720.206300 -0.019475
720.439500 0.009853
720.672700 -0.012983
720.906000 -0.005453
721.139200 -0.017622
721.372500 0.011747
721.605700 0.012771
721.839000 -0.000808
722.072300 -0.012817
722.305500 -0.019180
722.538800 0.005298
722.772100 -0.029260
723.005500 -0.005241
723.238800 -0.010350
723.472100 -0.011314
723.705500 -0.016156
723.938800 -0.022143
724.172200 -0.022847
724.405600 0.004724
724.638900 0.047224
724.872300 0.000329
725.105700 0.010667
725.339100 0.021142
725.572600 0.010711
725.806000 -0.009708
726.039400 0.000231
726.272900 0.030033
726.506300 -0.014825
726.739800 0.000902
726.973300 0.008035
727.206800 -0.001060
727.440300 0.011062
727.673800 0.010971
727.907300 0.003441
728.140800 -0.003887
728.374300 -0.018664
728.607900 0.004432
728.841400 -0.018150
729.075000 -0.005457
729.308600 -0.005131
729.542100 0.009495
729.775700 0.010481
730.009300 -0.023832
730.242900 -0.014822
730.476600 0.020445
730.710200 0.007064
730.943800 0.035696
731.177500 0.013819
731.411100 0.004404
731.644800 0.017528
731.878500 -0.005418
732.112200 -0.017347
732.345800 -0.004881
732.579500 0.007568
732.813300 0.004810
733.047000 0.000600
733.280700 0.019180
733.514500 -0.005466
733.748200 0.020387
733.982000 0.015192
734.215700 -0.002108
734.449500 0.008487
734.683300 0.010047
734.917100 -0.013109
735.150900 -0.011715
735.384700 0.007444
735.618500 0.010887
735.852400 0.014037
736.086200 0.015317
736.320100 -0.007892
736.553900 0.016371
736.787800 -0.012635
737.021700 0.001537
737.255600 0.001057
737.489500 -0.019085
737.723400 -0.026451
737.957300 -0.025383
738.191200 -0.028264
738.425200 0.000614
738.659100 -0.003665
738.893100 -0.012761
739.127100 0.013227
739.361000 0.011427
739.595000 0.010566
739.829000 -0.007246
740.063000 -0.013475
740.297000 -0.002118
740.531000 -0.034489
740.765100 -0.004785
740.999100 0.009708
741.233200 0.002340
741.467200 0.003513
741.701300 -0.026053
741.935400 0.004540
742.169500 -0.005557
742.403600 0.008065
742.637700 -0.017735
742.871800 -0.020154
743.105900 -0.008695
743.340000 -0.025459
743.574200 -0.020395
743.808300 -0.012159
744.042500 -0.037481
744.276700 -0.004473
744.510800 -0.002334
744.745000 -0.017278
744.979200 0.009257
745.213400 -0.001762
745.447700 -0.004747
745.681900 -0.010840
745.916100 0.002184
746.150400 -0.002102
746.384600 0.000073
746.618900 -0.040350
746.853200 0.005872
747.087400 0.003364
747.321700 0.004980
747.556000 -0.009019
747.790300 -0.001753
748.024700 -0.036703
748.259000 0.001201
748.493300 -0.005192
748.727700 0.000680
748.962000 0.020966
749.196400 0.000364
749.430800 0.020749
749.665200 -0.011266
749.899500 -0.002236
750.133900 -0.007109
750.368400 -0.005477
750.602800 0.000774
750.837200 -0.022313
751.071700 -0.006425
751.306100 -0.000441
751.540600 -0.002230
751.775000 0.017174
752.009500 -0.000845
752.244000 -0.022072
752.478500 -0.031990
752.713000 -0.000410
752.947500 -0.030776
753.182000 -0.005272
753.416600 -0.003832
753.651100 0.012036
753.885600 0.023385
754.120200 0.001076
754.354800 -0.018640
754.589400 -0.001459
754.823900 -0.004542
755.058500 0.008495
755.293100 -0.001129
755.527800 0.000041
755.762400 -0.011010
755.997000 0.017778
756.231700 0.001113
756.466300 0.006868
756.701000 0.012685
756.935600 0.000160
757.170300 0.012226
757.405000 0.027528
757.639700 0.007768
757.874400 0.018650
758.109100 0.003001
758.343800 -0.008807
758.578600 -0.000305
758.813300 0.009061
759.048100 0.001147
759.282800 0.003242
759.517600 0.020316
759.752400 0.007343
759.987200 0.002827
760.222000 -0.004092
760.456800 -0.002921
760.691600 0.008987
760.926400 0.001107
761.161300 0.007024
761.396100 -0.010618
761.631000 -0.003658
761.865800 0.023494
762.100700 0.003307
762.335600 0.004479
762.570500 -0.007309
762.805400 -0.016184
763.040300 0.002511
763.275200 0.005583
763.510100 -0.004786
763.745000 0.012641
763.980000 0.015719
764.214900 -0.005281
764.449900 0.016261
764.684900 0.008016
764.919800 -0.000377
765.154800 -0.002783
765.389800 0.007363
765.624800 0.007407
765.859900 -0.021385
766.094900 -0.016460
766.329900 -0.008581
766.565000 0.000366
766.800000 -0.006782
767.035100 -0.018826
767.270100 -0.000977
767.505200 -0.004105
767.740300 0.005877
767.975400 0.008830
768.210500 0.019596
768.445600 0.008281
768.680800 0.006891
768.915900 0.021066
769.151000 0.000204
769.386200 -0.000137
769.621400 -0.008867
769.856500 0.013116
770.091700 0.013650
770.326900 -0.011503
770.562100 -0.004047
770.797300 -0.008950
771.032500 0.006518
771.267700 0.000642
771.503000 -0.015123
771.738200 0.010351
771.973500 -0.028401
772.208700 -0.015274
772.444000 0.013322
772.679300 -0.011658
772.914600 0.004669
773.149900 -0.024470
773.385200 -0.020401
773.620500 -0.023857
773.855800 0.004466
774.091100 -0.025593
774.326500 0.006504
774.561800 -0.013331
774.797200 0.024283
775.032600 0.036769
775.267900 -0.033786
775.503300 -0.014683
775.738700 -0.006526
775.974100 -0.002209
776.209500 -0.015390
776.445000 -0.019740
776.680400 0.012003
776.915800 0.005101
777.151300 -0.023009
777.386800 -0.003045
777.622200 -0.027206
777.857700 0.009554
778.093200 -0.002227
778.328700 -0.008618
778.564200 -0.013078
778.799700 -0.001224
779.035200 0.004632
779.270700 -0.004224
779.506300 -0.004263
779.741800 -0.026750
779.977400 -0.023690
780.213000 -0.009586
780.448500 0.002634
780.684100 -0.008561
780.919700 0.018068
781.155300 0.006629
781.390900 0.024022
781.626500 0.008533
781.862200 0.018390
782.097800 0.005920
782.333500 0.001264
782.569100 0.008534
782.804800 -0.025843
783.040500 -0.000689
783.276100 -0.011442
783.511800 0.009357
783.747500 0.002966
783.983200 -0.005788
784.219000 -0.007562
784.454700 -0.007007
784.690400 -0.000859
784.926200 0.001809
785.161900 0.012053
785.397700 -0.012401
785.633500 -0.020478
785.869200 0.000044
786.105000 0.001098
786.340800 0.000703
786.576600 -0.015393
786.812400 -0.001583
787.048300 -0.023543
787.284100 0.007917
787.519900 0.008372
787.755800 0.019522
787.991700 -0.005659
788.227500 -0.029535
788.463400 0.007622
788.699300 -0.003134
788.935200 -0.000119
789.171100 -0.010132
789.407000 -0.001232
789.642900 -0.000237
789.878900 -0.004920
790.114800 0.014136
790.350700 -0.013628
790.586700 0.001734
790.822700 0.011418
791.058600 -0.006701
791.294600 0.003840
791.530600 -0.005719
791.766600 0.008817
792.002600 0.015867
792.238700 -0.000759
792.474700 0.015169
792.710700 0.026353
792.946800 -0.037840
793.182800 -0.004921
793.418900 0.015577
793.655000 0.017786
793.891000 0.040773
794.127100 0.035599
794.363200 0.018115
794.599300 -0.002206
794.835500 -0.012370
795.071600 0.016307
795.307700 0.010406
795.543900 -0.001681
795.780000 0.006380
796.016200 -0.003711
796.252300 -0.014746
796.488500 0.002587
796.724700 0.037663
796.960900 0.019228
797.197100 0.008990
797.433300 -0.011232
797.669500 -0.020946
797.905800 0.017420
798.142000 -0.010179
798.378300 0.002414
798.614500 -0.004600
798.850800 -0.010331
799.087100 0.001841
799.323300 -0.017176
799.559600 -0.023891
799.795900 0.015994
800.032200 0.023739
800.268600 -0.030335
800.504900 -0.004954
800.741200 -0.013154
800.977600 -0.003138
801.213900 0.035480
801.450300 0.019692
801.686700 0.007298
801.923000 0.013028
802.159400 0.002815
802.395800 -0.012896
802.632200 0.014112
802.868600 -0.039347
803.105100 0.014450
803.341500 -0.033039
803.577900 0.010403
803.814400 -0.010295
804.050800 -0.026403
804.287300 0.007590
804.523800 -0.010146
804.760300 0.017581
804.996800 -0.023423
805.233300 0.000783
805.469800 -0.001899
805.706300 -0.017581
805.942800 0.005626
806.179400 -0.010597
806.415900 0.012116
806.652500 0.008881
806.889000 0.005968
807.125600 0.000573
807.362200 -0.009555
807.598800 -0.013964
807.835400 -0.003365
808.072000 0.007023
808.308600 0.016273
808.545200 0.003897
808.781800 -0.002009
809.018500 0.027877
809.255100 -0.010807
809.491800 -0.054035
809.728400 -0.019902
809.965100 0.028849
810.201800 -0.006397
810.438500 -0.048639
810.675200 -0.027363
810.911900 -0.000408
811.148600 0.038406
811.385300 0.012023
811.622100 0.031779
811.858800 -0.018216
812.095600 -0.013863
812.332300 0.033560
812.569100 -0.044201
812.805900 -0.001685
813.042700 -0.012973
813.279500 0.017563
813.516300 -0.030288
813.753100 0.017233
813.989900 0.009501
814.226700 0.024773
814.463600 -0.003451
814.700400 -0.016595
814.937300 -0.016993
815.174200 -0.025691
815.411000 -0.015364
815.647900 -0.055544
815.884800 -0.029283
816.121700 0.020072
816.358600 0.012486
816.595500 0.024867
816.832400 -0.007096
817.069400 0.013624
817.306300 -0.000907
817.543300 -0.014574
817.780200 -0.040676
818.017200 0.021593
818.254200 0.028189
818.491200 -0.027320
818.728200 -0.010689
818.965200 -0.011084
819.202200 -0.011093
819.439200 0.020145
819.676200 -0.060681
819.913300 -0.016280
820.150300 0.011884
820.387400 0.054213
820.624400 0.047801
820.861500 -0.001282
821.098600 0.023781
821.335700 0.044742
821.572700 0.017873
821.809900 -0.040709
822.047000 0.034272
822.284100 -0.002031
822.521200 0.015348
822.758400 -0.002952
822.995500 0.002478
823.232700 0.020807
823.469800 0.020502
823.707000 -0.034607
823.944200 -0.036150
824.181400 0.084660
824.418600 -0.010072
824.655800 -0.035990
824.893000 0.000484
825.130200 -0.010973
825.367500 0.021775
825.604700 0.025880
825.841900 -0.044283
826.079200 0.025298
826.316500 -0.021402
826.553700 -0.026508
826.791000 0.042551
827.028300 0.033325
827.265600 0.013109
827.502900 0.028436
827.740200 0.018011
827.977600 -0.042248
828.214900 -0.021225
828.452200 0.010128
828.689600 -0.007987
828.927000 -0.002260
829.164300 -0.030640
829.401700 -0.014648
829.639100 0.003396
829.876500 -0.023425
830.113900 0.018330
830.351300 0.033860
830.588700 -0.041404
830.826100 -0.015187
831.063600 -0.038309
831.301000 0.051131
831.538500 -0.034334
831.775900 -0.001030
832.013400 0.000654
832.250900 0.014743
832.488400 0.067314
832.725900 0.030956
832.963400 0.023720
833.200900 0.064378
833.438400 0.008735
833.675900 0.042222
833.913500 0.029028
834.151000 0.028801
834.388600 0.052306
834.626100 0.003507
834.863700 0.028447
835.101300 0.007668
835.338900 -0.023758
835.576500 -0.041546
835.814100 -0.007171
836.051700 0.002890
836.289300 0.053529
836.526900 -0.012653
836.764600 0.038549
837.002200 0.047577
837.239900 0.016886
837.477500 0.060377
837.715200 -0.084284
837.952900 -0.024540
838.190600 0.045313
838.428300 -0.034176
838.666000 -0.003295
838.903700 0.009683
839.141400 0.078154
839.379100 -0.054818
839.616900 -0.036154
839.854600 0.000437
840.092400 0.018559
840.330200 0.016556
840.567900 0.089074
840.805700 0.021604
841.043500 0.006294
841.281300 -0.011400
841.519100 -0.032304
841.756900 0.024641
841.994700 -0.093624
842.232600 0.026631
842.470400 0.082518
842.708200 -0.027152
842.946100 -0.042791
843.184000 -0.076080
843.421800 0.059182
843.659700 0.022272
843.897600 -0.014220
844.135500 0.082991
844.373400 0.031158
844.611300 0.021927
844.849200 -0.006712
845.087200 0.029235
845.325100 0.023225
845.563100 0.072771
845.801000 0.018396
846.039000 0.023048
846.277000 -0.058581
846.514900 -0.029492
846.752900 -0.072297
846.990900 0.042032
847.228900 -0.075105
847.466900 0.096755
847.705000 -0.075727
847.943000 0.029976
848.181000 -0.026812
848.419100 0.068169
848.657100 0.090973
848.895200 0.030464
849.133300 0.041212
849.371300 0.015195
849.609400 -0.047969
849.847500 0.037004
850.085600 0.092477
850.323700 0.072695
850.561900 0.074723
850.800000 0.028887
851.038100 0.054069
851.276300 -0.111580
851.514400 -0.012130
851.752600 0.008489
851.990800 -0.028430
852.228900 -0.061053
852.467100 0.030239
852.705300 0.021154
852.943500 0.027518
853.181700 0.025575
853.420000 -0.027742
853.658200 -0.009805
853.896400 0.030079
854.134700 0.030172
854.372900 0.023627
854.611200 0.018808
854.849500 0.040130
855.087700 -0.014783
855.326000 0.012138
855.564300 0.029036
855.802600 0.039591
856.040900 0.043308
856.279200 0.021370
856.517600 0.042406
856.755900 -0.028079
856.994200 -0.008324
857.232600 0.008324
857.471000 -0.009626
857.709300 -0.032871
857.947700 -0.043454
858.186100 0.055955
858.424500 -0.032730
858.662900 -0.032903
858.901300 0.010984
859.139700 0.027576
859.378100 0.016431
859.616600 0.022520
859.855000 0.019090
860.093500 0.032733
860.331900 -0.000378
860.570400 0.065941
860.808900 0.040725
861.047300 -0.045045
861.285800 -0.014743
861.524300 0.105338
861.762800 0.052254
862.001300 0.075018
862.239900 0.176005
862.478400 -0.004079
862.716900 -0.002364
862.955500 0.065606
863.194000 -0.022004
863.432600 0.013203
863.671200 0.052817
863.909800 -0.003723
864.148300 -0.057079
864.386900 -0.040611
864.625500 -0.022868
864.864200 -0.003782
865.102800 -0.087271
865.341400 0.035576
865.580000 0.009955
865.818700 0.077749
866.057300 0.027680
866.296000 0.019539
866.534700 0.030375
866.773300 0.074610
867.012000 0.009406
867.250700 0.029190
867.489400 -0.036222
867.728100 -0.044149
867.966900 0.097902
868.205600 0.030846
868.444300 0.084069
868.683100 -0.091442
868.921800 -0.030789
869.160600 -0.023958
869.399300 -0.004536
869.638100 0.029846
869.876900 -0.039776
870.115700 0.025535
870.354500 0.048014
870.593300 -0.101270
870.832100 0.030889
871.070900 -0.071440
871.309700 -0.023110
871.548600 0.106063
871.787400 -0.091329
872.026300 -0.045584
872.265100 0.017622
872.504000 -0.109412
872.742900 0.041590
872.981800 -0.040901
873.220700 0.024263
873.459600 0.045032
873.698500 0.059377
873.937400 0.004140
874.176300 -0.014957
874.415300 0.020905
874.654200 0.079538
874.893200 0.088548
875.132100 -0.096555
875.371100 0.031782
875.610100 0.120869
875.849100 0.028699
876.088000 -0.014343
876.327000 -0.001383
876.566100 -0.027656
876.805100 0.076942
877.044100 -0.014676
877.283100 -0.087543
877.522200 -0.119280
877.761200 -0.003940
878.000300 0.036215
878.239300 0.064483
878.478400 0.011343
878.717500 -0.000179
878.956600 0.032704
879.195700 0.124611
879.434800 -0.055533
879.673900 -0.025237
879.913000 0.021391
880.152100 0.058089
880.391300 0.045663
880.630400 0.080040
880.869600 0.028527
881.108700 -0.016803
881.347900 -0.015459
881.587100 0.019851
881.826200 0.050353
882.065400 0.077833
882.304600 -0.072406
882.543800 0.026285
882.783100 0.042107
883.022300 -0.005614
883.261500 -0.071138
883.500700 -0.030295
883.740000 -0.023093
883.979200 0.072028
884.218500 -0.084164
884.457800 0.029212
884.697100 -0.015764
884.936300 0.040684
885.175600 0.034730
885.414900 0.071806
885.654200 -0.002548
885.893600 -0.012972
886.132900 0.052762
886.372200 0.012387
886.611600 -0.120339
886.850900 0.117118
887.090300 0.072712
887.329600 -0.030684
887.569000 0.015436
887.808400 0.037357
888.047800 -0.062670
888.287200 -0.018108
888.526600 0.001361
888.766000 -0.106002
889.005400 0.017800
889.244800 0.098166
889.484300 -0.063647
889.723700 0.082510
889.963200 -0.042418
890.202600 -0.043955
890.442100 -0.017252
890.681600 0.003947
890.921100 0.073499
891.160600 0.152554
891.400100 0.054126
891.639600 0.042373
891.879100 -0.026482
892.118600 0.008590
892.358100 0.008074
892.597700 0.078012
892.837200 0.077591
893.076800 0.088512
893.316300 0.034191
893.555900 0.008502
893.795500 0.090893
894.035100 -0.004905
894.274700 0.059542
894.514300 0.084327
894.753900 -0.060277
894.993500 0.044952
895.233100 -0.075987
895.472700 0.054928
895.712400 0.032306
895.952000 0.015840
896.191700 -0.025457
896.431400 0.028632
896.671000 0.023725
896.910700 0.057528
897.150400 -0.000680
897.390100 0.006189
897.629800 0.000970
897.869500 -0.032533
898.109200 0.050993
898.348900 0.023242
898.588700 0.046847
898.828400 0.104989
899.068200 0.012577
899.307900 0.035696
899.547700 0.002006
899.787500 0.070908
900.027200 -0.111089
900.267000 0.151679
900.506800 0.118491
900.746600 0.006629
900.986400 -0.034087
901.226300 0.036170
901.466100 0.034630
901.705900 0.110818
901.945800 -0.007619
902.185600 0.042732
902.425500 -0.049025
902.665400 -0.027533
902.905200 -0.017774
903.145100 -0.040137
903.385000 -0.112350
903.624900 0.138958
903.864800 -0.028712
904.104700 0.066328
904.344600 0.023540
904.584600 -0.074236
904.824500 -0.011977
905.064400 0.020172
905.304400 0.019496
905.544400 0.072111
905.784300 0.074584
906.024300 0.067356
906.264300 -0.031772
906.504300 0.081831
906.744300 0.028987
906.984300 0.066500
907.224300 0.073854
907.464300 0.075033
907.704300 -0.008437
907.944400 0.041800
908.184400 -0.118916
908.424500 0.005270
908.664500 -0.053207
908.904600 0.020203
909.144700 0.019983
909.384700 -0.010934
909.624800 -0.062265
909.864900 0.118714
910.105000 -0.007144
910.345200 -0.123571
910.585300 0.019188
910.825400 0.041327
911.065500 0.039397
911.305700 0.152913
911.545800 -0.015337
911.786000 0.048363
912.026200 -0.058167
912.266300 0.075488
912.506500 -0.054415
912.746700 0.098483
912.986900 -0.049993
913.227100 -0.081500
913.467300 -0.049430
913.707500 -0.093842
913.947800 -0.019052
914.188000 0.035160
914.428300 0.014746
914.668500 0.128520
914.908800 -0.014137
915.149000 -0.006432
915.389300 0.191528
915.629600 0.108881
915.869900 0.093041
916.110200 0.014753
916.350500 0.011531
916.590800 -0.060574
916.831100 0.066209
917.071400 -0.019887
917.311800 0.053366
917.552100 0.062828
917.792500 -0.046636
918.032800 0.074656
918.273200 0.132595
918.513600 0.001402
918.753900 0.080856
918.994300 0.124342
919.234700 0.123041
919.475100 0.067341
919.715500 0.015852
919.956000 0.141434
920.196400 -0.055709
920.436800 0.019758
920.677300 -0.015799
920.917700 -0.022757
921.158200 0.073988
921.398600 0.047596
921.639100 0.129726
921.879600 -0.160217
922.120100 -0.022425
922.360600 0.008723
922.601100 -0.014611
922.841600 0.066105
923.082100 -0.066247
923.322600 -0.005849
923.563100 -0.098334
923.803700 0.204750
924.044200 0.051835
924.284800 0.088543
924.525400 0.086488
924.765900 0.082503
925.006500 0.011158
925.247100 0.039831
925.487700 -0.020287
925.728300 0.122779
925.968900 -0.041614
926.209500 0.029395
926.450100 -0.011625
926.690800 0.276131
926.931400 -0.129525
927.172000 0.017421
927.412700 -0.016913
927.653300 0.123429
927.894000 0.141839
928.134700 0.099732
928.375400 -0.050349
928.616100 0.111112
928.856800 0.063596
929.097500 -0.031792
929.338200 0.116830
929.578900 -0.082293
929.819600 0.202532
930.060400 -0.008526
930.301100 0.300301
930.541900 0.054684
930.782600 0.124548
931.023400 0.113169
931.264200 0.346724
931.504900 0.038200
931.745700 0.204314
931.986500 0.022610
932.227300 0.186654
932.468100 0.216543
932.708900 0.122839
932.949800 0.009322
933.190600 0.185847
933.431400 -0.037748
933.672300 -0.014606
933.913100 0.104001
934.154000 0.265216
934.394900 -0.025837
934.635800 -0.175940
934.876600 0.029210
935.117500 0.107513
935.358400 0.131636
935.599300 0.019547
935.840300 -0.129713
936.081200 0.138583
936.322100 -0.191120
936.563000 0.032941
936.804000 0.229694
937.044900 -0.087324
937.285900 -0.069088
937.526900 -0.049218
937.767800 0.354577
938.008800 0.283551
938.249800 0.128162
938.490800 0.174212
938.731800 0.068637
938.972800 0.354572
939.213800 0.008282
939.454900 0.222676
939.695900 0.002706
939.936900 0.022616
940.178000 0.310558
940.419000 -0.113106
940.660100 0.058944
940.901200 0.042246
941.142200 -0.241826
941.383300 0.271325
941.624400 0.032044
941.865500 0.130494
942.106600 0.191627
942.347700 -0.179864
942.588900 0.227957
942.830000 -0.057992
943.071100 0.299863
943.312300 0.346445
943.553400 -0.075554
943.794600 0.315466
944.035700 0.547732
944.276900 0.129825
944.518100 0.249803
944.759300 0.212951
945.000500 -0.273690
945.241700 0.132765
945.482900 0.423350
945.724100 0.251749
945.965300 0.197443
946.206600 -0.017424
946.447800 -0.203134
946.689100 0.092766
946.930300 -0.475573
947.171600 0.139097
947.412800 0.095158
947.654100 -0.192958
947.895400 0.577056
948.136700 0.166200
948.378000 -0.136471
948.619300 0.426049
948.860600 0.481386
949.101900 -0.043926
949.343300 0.286201
949.584600 0.213946
949.825900 0.242697
950.067300 0.203201
950.308600 -0.179748
950.550000 0.249308
950.791400 -0.347929
951.032700 -0.355662
951.274100 0.078873
951.515500 0.668481
951.756900 0.205798
951.998300 0.184321
952.239800 0.406025
952.481200 0.062012
952.722600 -0.135035
952.964000 0.087056
953.205500 -0.019102
953.446900 0.078580
953.688400 0.216975
953.929900 0.387644
954.171300 -1.332952
954.412800 0.176248
954.654300 0.213505
954.895800 -0.000421
955.137300 -0.225847
955.378800 0.025219
955.620300 0.523614
955.861800 0.096652
956.103400 0.047780
956.344900 0.153271
956.586500 -0.088928
956.828000 -0.068960
957.069600 0.377762
957.311100 -0.077234
957.552700 0.631720
957.794300 -0.214361
958.035900 0.418502
958.277500 -0.018376
958.519100 0.255403
958.760700 0.463757
959.002300 -0.269546
959.243900 0.670147
959.485600 0.646713
959.727200 0.550429
959.968800 0.024238
960.210500 2.960946
960.452200 0.419129
960.693800 -0.174694
960.935500 -2.783904
961.177200 0.238388
961.418900 -0.165013
961.660600 -0.063615
961.902300 0.135624
962.144000 -0.217400
962.385700 -0.335414
962.627400 0.068003
962.869200 -0.250085
963.110900 0.240463
963.352700 -0.244113
963.594400 0.478977
963.836200 0.534183
964.077900 0.258647
964.319700 0.366943
964.561500 0.017325
964.803300 0.138381
965.045100 -0.226642
965.286900 -0.011766
965.528700 -0.085266
965.770500 0.491462
966.012300 -0.310933
966.254200 -0.276866
966.496000 -0.289092
966.737900 0.433039
966.979700 0.208915
967.221600 -0.048740
967.463400 -0.051308
967.705300 3.152288
967.947200 -0.131930
968.189100 -0.593259
968.431000 0.548075
968.672900 3.067443
968.914800 -0.119024
969.156700 0.049593
969.398700 -0.013030
969.640600 -0.164420
969.882500 1.434846
970.124500 -0.008011
970.366400 0.236849
970.608400 0.359922
970.850400 -0.143581
971.092300 -0.098584
971.334300 0.092162
971.576300 -0.402077
971.818300 0.360055
972.060300 -0.036032
972.302300 0.417146
972.544300 -0.091249
972.786400 0.590215
973.028400 0.237410
973.270400 0.648117
973.512500 0.006150
973.754500 0.339488
973.996600 -0.231843
974.238700 0.319357
974.480700 -0.232662
974.722800 0.579257
974.964900 -0.046057
975.207000 0.068315
975.449100 -0.624386
975.691200 0.133071
975.933300 0.069081
976.175500 -3.200303
976.417600 0.098360
976.659700 0.697179
976.901900 0.055461
977.144000 0.185674
977.386200 -0.336273
977.628300 0.621979
977.870500 0.869736
978.112700 0.034762
978.354900 0.270824
978.597100 0.353677
978.839300 3.206826
979.081500 0.485868
979.323700 -2.972666
979.565900 -0.299142
979.808200 0.147356
980.050400 1.047365
980.292600 0.138196
980.534900 0.228934
980.777100 0.240494
981.019400 -0.260442
981.261700 0.054066
981.504000 0.750098
981.746200 -0.973128
981.988500 2.013259
982.230800 -0.201393
982.473100 0.298251
982.715500 1.273527
982.957800 2.799341
983.200100 0.415151
983.442400 0.573234
983.684800 0.051929
983.927100 0.753700
984.169500 0.260332
984.411800 -0.147446
984.654200 2.760422
984.896600 1.105062
985.139000 -1.549148
985.381400 0.135048
985.623800 0.372912
985.866200 0.209260
986.108600 -2.736397
986.351000 3.089905
986.593400 0.475809
986.835800 0.284767
987.078300 -0.585965
987.320700 0.131631
987.563200 2.700704
987.805600 0.216316
988.048100 0.302719
988.290600 -0.297624
988.533100 -2.628389
988.775600 0.131038
989.018000 0.139386
989.260500 0.228425
989.503100 -2.818226
989.745600 0.461094
989.988100 -1.908485
990.230600 0.355665
990.473200 0.715399
990.715700 1.099316
990.958200 2.523746
991.200800 0.279692
991.443400 0.000000
991.685900 0.168538
991.928500 0.000000
992.171100 -0.968742
992.413700 0.715873
992.656300 3.161667
992.898900 2.866287
993.141500 3.078457
993.384100 1.623663
993.626700 0.351833
993.869400 0.029640
994.112000 0.797580
994.354700 0.251430
994.597300 3.030195
994.840000 -3.124830
995.082600 -0.628558
995.325300 2.269513
995.568000 2.884795
995.810700 2.127105
996.053400 0.016868
996.296100 2.827369
996.538800 0.176682
996.781500 3.171141
997.024200 -0.882748
997.267000 -0.070441
997.509700 0.653919
997.752400 0.005210
997.995200 0.193217
998.237900 2.224447
998.480700 0.068253
998.723500 -2.818226
998.966200 1.231893
999.209000 -1.826075
999.451800 0.185665
999.694600 3.025715
999.937400 0.373581
1000.180200 0.018968
1000.423000 3.101403
1000.665900 0.021458
1000.908700 0.331741
1001.151500 1.003265
1001.394400 0.290230
1001.637200 0.242133
1001.880100 -1.985277
1002.123000 0.536910
1002.365800 0.166914
1002.608700 -0.361396
1002.851600 2.913284
1003.094500 0.372869
1003.337400 -0.068073
1003.580300 0.000000
1003.823200 2.414973
1004.066100 0.109637
1004.309100 0.275286
1004.552000 0.167867
1004.794900 0.838972
1005.037900 0.183407
1005.280800 2.806180
1005.523800 0.102207
1005.766700 0.015265
1006.009700 0.777762
1006.252700 0.000000
1006.495700 0.986839
1006.738700 -3.086360
1006.981700 0.479030
1007.224700 2.653213
1007.467700 -0.550108
1007.710700 -0.078649
1007.953800 3.146128
1008.196800 0.177688
1008.439800 0.411442
1008.682900 0.226582
1008.925900 0.308024
1009.169000 0.001704
1009.412100 -1.977724
1009.655100 -0.467071
1009.898200 0.313739
1010.141300 -0.210483
1010.384400 0.260021
1010.627500 2.550228
1010.870600 0.173575
1011.113700 0.949639
1011.356800 0.213820
1011.600000 1.591065
1011.843100 -0.312535
1012.086300 -2.372912
1012.329400 0.749049
1012.572600 0.000000
1012.815700 0.242324
1013.058900 0.000000
1013.302100 0.158793
1013.545200 0.033063
1013.788400 0.929250
1014.031600 -2.650308
1014.274800 0.230084
1014.518000 3.161967
1014.761300 0.364623
1015.004500 -2.421604
1015.247700 2.940516
1015.490900 0.000000
1015.734200 0.421574
1015.977400 2.450249
1016.220700 -2.432969
1016.464000 0.694727
1016.707200 2.190332
1016.950500 2.378398
1017.193800 2.907949
1017.437100 -0.212224
1017.680400 1.007703
1017.923700 0.998168
1018.167000 3.231724
1018.410300 -0.052029
1018.653600 2.913814
1018.896900 3.021603
1019.140300 0.685803
1019.383600 -0.283203
1019.627000 -0.028241
1019.870300 2.465383
1020.113700 0.289238
1020.357100 0.339659
1020.600400 2.853698
1020.843800 0.420012
1021.087200 1.417898
1021.330600 -1.944483
1021.574000 3.070776
1021.817400 0.000000
1022.060800 0.000000
1022.304200 -2.008600
1022.547700 2.902003
1022.791100 1.035029
1023.034500 1.582464
