# Wavelength	Absorbance
197.780200 -0.062492
197.984200 1.274480
198.188200 0.474678
198.392200 -0.195226
198.596300 -0.199625
198.800300 2.318063
199.004400 0.146233
199.208500 1.523865
199.412600 -0.174636
199.616800 0.340503
199.820900 -0.669750
200.025100 1.114519
200.229200 -0.155200
200.433400 3.008600
200.637600 0.571889
200.841800 0.390120
201.046100 0.067586
201.250300 3.142702
201.454600 0.246381
201.658900 3.051153
201.863100 -0.259308
202.067400 2.760422
202.271800 0.170528
202.476100 2.896526
202.680500 0.015794
202.884800 2.980458
203.089200 0.708293
203.293600 0.118734
203.498000 0.172921
203.702400 -0.398340
203.906900 -0.757796
204.111300 -2.264818
204.315800 -0.078504
204.520300 0.869833
204.724800 0.096349
204.929300 0.148226
205.133800 0.106106
205.338400 1.917111
205.543000 0.379042
205.747500 2.682145
205.952100 0.009218
206.156700 3.034628
206.361400 -3.046105
206.566000 -0.614569
206.770600 0.342777
206.975300 2.294466
207.180000 0.845098
207.384700 0.195014
207.589400 -2.451786
207.794100 0.232034
207.998900 -0.031963
208.203600 0.355021
208.408400 -0.007369
208.613200 1.477779
208.818000 -0.171909
209.022800 2.414973
209.227600 -0.294410
209.432500 0.734762
209.637300 0.188150
209.842200 2.294466
210.047100 -0.341228
210.252000 -0.620864
210.456900 0.037530
210.661800 3.055378
210.866800 0.084053
211.071800 1.206860
211.276700 -0.257593
211.481700 0.930217
211.686700 0.093381
211.891800 2.480007
212.096800 0.435346
212.301800 0.318712
212.506900 0.535841
212.712000 1.409369
212.917100 0.469706
213.122200 0.673163
213.327300 0.718465
213.532500 -1.806180
213.737600 -0.017172
213.942800 -1.275476
214.148000 -0.228894
214.353200 -2.380211
214.558400 -0.151381
214.763600 3.265290
214.968900 0.139890
215.174100 3.104487
215.379400 -2.686636
215.584700 0.550290
215.790000 -0.061541
215.995300 2.820201
216.200700 -0.242650
216.406000 0.371803
216.611400 -0.367014
216.816800 0.031695
217.022200 -0.208770
217.227600 0.719004
217.433000 -0.209297
217.638400 0.186338
217.843900 0.067235
218.049400 -2.107210
218.254800 0.502759
218.460300 3.008600
218.665900 0.058275
218.871400 0.333604
219.076900 0.290501
219.282500 2.960946
219.488100 1.584877
219.693600 -0.157111
219.899200 0.398997
220.104900 3.055378
220.310500 -0.495814
220.516100 -2.588832
220.721800 -0.165668
220.927500 0.589703
221.133200 -0.017598
221.338900 -0.035515
221.544600 0.442122
221.750300 0.318451
221.956100 -0.092154
222.161800 -0.250375
222.367600 1.157409
222.573400 0.614069
222.779200 -2.869232
222.985000 -3.128399
223.190900 0.116538
223.396700 -0.243335
223.602600 0.035860
223.808500 -0.075179
224.014400 -0.011406
224.220300 0.138240
224.426200 0.026484
224.632200 0.004907
224.838100 -0.144608
225.044100 0.312768
225.250100 0.145395
225.456100 2.653213
225.662100 -0.248356
225.868100 -0.837626
226.074200 -0.435357
226.280200 0.000000
226.486300 -0.352800
226.692400 -2.354108
226.898500 0.200490
227.104600 0.660998
227.310700 0.127407
227.516900 0.904365
227.723000 2.089905
227.929200 0.281113
228.135400 0.277549
228.341600 0.491880
228.547800 0.243716
228.754100 0.231569
228.960300 -0.606967
229.166600 -2.611723
229.372900 0.479814
229.579100 0.135272
229.785500 0.411479
229.991800 -1.759128
230.198100 -0.398481
230.404500 -0.428909
230.610800 0.192316
230.817200 -3.026533
231.023600 -0.043572
231.230000 2.683047
231.436400 0.374862
231.642900 0.754714
231.849300 -0.097611
232.055800 2.008600
232.262300 0.432550
232.468800 -0.120140
232.675300 2.701568
232.881800 2.599883
233.088400 -0.202849
233.294900 -0.323092
233.501500 0.167203
233.708100 0.000000
233.914700 0.356855
234.121300 -2.681241
234.327900 0.030846
234.534600 -0.308638
234.741300 0.139518
234.947900 0.265105
235.154600 0.608932
235.361300 0.404873
235.568000 -0.121935
235.774800 -0.264099
235.981500 0.756113
236.188300 -2.843855
236.395100 0.062048
236.601800 0.000000
236.808700 0.084151
237.015500 0.189099
237.222300 2.853698
237.429200 0.482817
237.636000 0.270647
237.842900 1.851258
238.049800 0.264378
238.256700 0.105438
238.463600 0.066384
238.670600 0.118332
238.877500 0.152941
239.084500 -2.130334
239.291500 0.475063
239.498500 2.245513
239.705500 -0.416489
239.912500 -1.006772
240.119500 -0.737939
240.326600 0.107546
240.533700 -3.165541
240.740700 1.158778
240.947800 0.188250
241.154900 0.336551
241.362100 0.796473
241.569200 0.525247
241.776400 -0.182713
241.983500 2.783904
242.190700 0.113755
242.397900 -2.281033
242.605100 -0.283694
242.812400 -0.031382
243.019600 0.171886
243.226900 0.137246
243.434100 0.208276
243.641400 2.736397
243.848700 -0.060148
244.056000 -2.596597
244.263400 -0.280781
244.470700 0.326149
244.678100 0.470703
244.885400 2.945469
245.092800 -0.552625
245.300200 -0.022276
245.507600 0.111472
245.715100 3.034628
245.922500 0.339488
246.130000 -1.231949
246.337500 0.371980
246.544900 -0.615794
246.752400 0.418377
246.960000 0.600578
247.167500 3.215373
247.375000 0.000000
247.582600 0.121000
247.790200 -0.655961
247.997800 0.064294
248.205400 0.557062
248.413000 0.061164
248.620600 1.171239
248.828300 0.503057
249.035900 0.529540
249.243600 0.272914
249.451300 0.701471
249.659000 0.487559
249.866700 1.276108
250.074500 0.629745
250.282200 0.796793
250.490000 0.053120
250.697800 0.716622
250.905600 -0.498174
251.113400 0.099983
251.321200 -0.194043
251.529000 2.008600
251.736900 0.042086
251.944700 0.325737
252.152600 0.487500
252.360500 2.710117
252.568400 -0.530923
252.776300 -0.467164
252.984300 2.902003
253.192200 0.902641
253.400200 0.132914
253.608200 0.183243
253.816200 0.239033
254.024200 -0.227632
254.232200 -0.810853
254.440200 -1.755875
254.648300 -0.007324
254.856400 0.020327
255.064400 0.563787
255.272500 0.717393
255.480600 0.004458
255.688800 -2.611723
255.896900 0.072109
256.105100 0.446033
256.313200 2.752816
256.521400 1.014456
256.729600 -0.028515
256.937800 0.510568
257.146000 -0.191068
257.354300 -1.698970
257.562500 -0.010724
257.770800 -2.856124
257.979100 0.226863
258.187400 0.260913
258.395700 -0.097054
258.604000 0.401160
258.812400 0.202240
259.020700 0.761307
259.229100 3.093772
259.437500 0.301949
259.645900 0.180514
259.854300 0.116594
260.062700 0.240120
260.271100 0.202875
260.479600 0.300337
260.688100 -0.002373
260.896500 1.790455
261.105000 -0.988189
261.313500 -0.083832
261.522100 0.425865
261.730600 -0.089069
261.939200 0.210206
262.147700 -0.215580
262.356300 -0.075783
262.564900 -0.484217
262.773500 0.466502
262.982200 0.586659
263.190800 -2.619093
263.399500 0.248740
263.608100 1.862926
263.816800 0.532201
264.025500 0.003502
264.234200 -0.598274
264.442900 -0.898259
264.651700 0.524733
264.860400 0.191466
265.069200 0.128427
265.278000 2.990339
265.486800 0.980256
265.695600 0.202276
265.904400 -0.166088
266.113300 -0.004343
266.322100 0.224484
266.531000 -0.456813
266.739900 -0.244610
266.948800 0.385444
267.157700 0.280569
267.366600 -0.017606
267.575500 -0.182025
267.784500 -0.211699
267.993500 0.173899
268.202400 0.145385
268.411400 0.367426
268.620500 -0.183307
268.829500 -0.224026
269.038500 -0.415224
269.247600 0.209587
269.456600 -0.530476
269.665700 -0.142216
269.874800 0.351109
270.083900 0.482951
270.293100 -2.596597
270.502200 0.680520
270.711400 2.127105
270.920500 -0.137491
271.129700 2.985426
271.338900 3.115611
271.548100 0.609180
271.757300 0.177715
271.966600 0.264081
272.175800 0.319523
272.385100 0.630153
272.594400 0.073735
272.803700 3.021603
273.013000 -0.238882
273.222300 0.060764
273.431600 0.177578
273.641000 0.357913
273.850400 -0.260327
274.059700 0.341735
274.269100 -0.109174
274.478500 0.134610
274.688000 1.550086
274.897400 0.866287
275.106900 -1.420929
275.316300 0.790561
275.525800 3.067071
275.735300 -2.354108
275.944800 -0.005604
276.154300 2.662758
276.363900 0.431912
276.573400 0.367350
276.783000 0.168404
276.992600 -0.238692
277.202200 1.490972
277.411800 0.435423
277.621400 -0.227184
277.831000 1.122960
278.040700 0.033274
278.250300 1.186733
278.460000 0.030792
278.669700 2.980458
278.879400 2.432969
279.089100 0.794338
279.298900 -0.000510
279.508600 0.204857
279.718400 0.532407
279.928100 -2.056905
280.137900 0.453445
280.347700 -0.090177
280.557600 0.292560
280.767400 1.226104
280.977200 0.198214
281.187100 -2.745855
281.397000 0.111725
281.606900 -2.311754
281.816800 0.170923
282.026700 2.357935
282.236600 -0.012920
282.446600 2.924279
282.656500 -2.787460
282.866500 0.040412
283.076500 -0.473119
283.286500 0.055714
283.496500 0.383217
283.706500 0.436120
283.916600 0.192345
284.126600 -1.884067
284.336700 0.298689
284.546800 -0.179445
284.756900 0.248289
284.967000 0.631708
285.177100 0.265542
285.387300 -2.825426
285.597400 0.178184
285.807600 2.127105
286.017800 0.221261
286.228000 -2.029384
286.438200 0.014279
286.648400 0.110570
286.858700 0.379928
287.068900 -0.190915
287.279200 -0.121060
287.489500 -0.760828
287.699800 0.361698
287.910100 1.278754
288.120400 1.704852
288.330800 -0.398985
288.541100 3.352954
288.751500 0.065196
288.961900 -0.335022
289.172300 -2.856124
289.382700 -0.092796
289.593100 0.259107
289.803500 -2.820858
290.014000 0.251293
290.224500 -0.093715
290.434900 -2.547775
290.645400 -0.251126
290.855900 -0.177376
291.066500 0.411328
291.277000 -0.071948
291.487500 -0.147289
291.698100 -0.219028
291.908700 -0.542357
292.119300 3.059185
292.329900 0.540542
292.540500 0.300219
292.751100 0.563471
292.961800 -3.040602
293.172400 0.420155
293.383100 0.000000
293.593800 -0.064806
293.804500 -0.352028
294.015200 -0.097636
294.226000 -2.626340
294.436700 0.626154
294.647500 0.968660
294.858200 0.351361
295.069000 0.003840
295.279800 -0.140975
295.490600 -2.152288
295.701500 0.238327
295.912300 3.082785
296.123200 0.276452
296.334000 -0.092244
296.544900 0.348793
296.755800 0.074454
296.966700 0.299285
297.177700 2.945961
297.388600 1.179128
297.599500 -0.607858
297.810500 0.763922
298.021500 0.901246
298.232500 0.218122
298.443500 -0.278287
298.654500 0.304216
298.865600 0.138140
299.076600 -0.278699
299.287700 -2.053078
299.498800 1.271705
299.709900 0.246864
299.921000 0.341311
300.132100 3.038620
300.343200 0.547812
300.554400 -0.150224
300.765500 0.401912
300.976700 0.000000
301.187900 0.192265
301.399100 0.187241
301.610300 0.077444
301.821500 0.377072
302.032800 -0.037589
302.244100 0.444579
302.455300 0.228373
302.666600 0.382998
302.877900 0.317857
303.089200 -0.382428
303.300600 0.542330
303.511900 2.970812
303.723300 -0.243333
303.934600 0.654346
304.146000 -2.455497
304.357400 0.677094
304.568800 -0.124784
304.780300 0.565948
304.991700 -0.080487
305.203100 -0.301030
305.414600 0.204505
305.626100 0.029648
305.837600 0.520788
306.049100 -0.080150
306.260600 0.253885
306.472200 -0.623719
306.683700 0.605517
306.895300 -0.123782
307.106900 0.287242
307.318400 0.076543
307.530100 0.785033
307.741700 0.541362
307.953300 3.332236
308.165000 -2.107210
308.376600 0.824381
308.588300 0.623200
308.800000 0.400759
309.011700 3.215109
309.223400 -0.000325
309.435100 0.893947
309.646900 -0.104377
309.858600 0.154083
310.070400 -0.006088
310.282200 -1.633468
310.494000 0.452709
310.705800 3.168203
310.917600 -0.040861
311.129500 0.329561
311.341300 0.116607
311.553200 0.205901
311.765100 0.031700
311.977000 0.223101
312.188900 -0.032185
312.400800 -0.230187
312.612700 -0.054606
312.824700 0.402733
313.036600 0.232109
313.248600 1.158848
313.460600 -0.155467
313.672600 0.242865
313.884600 0.006094
314.096700 2.599883
314.308700 0.735599
314.520800 -0.030622
314.732800 0.390784
314.944900 0.541902
315.157000 0.234137
315.369200 -0.015166
315.581300 -0.120520
315.793400 -0.255273
316.005600 0.040517
316.217700 0.090109
316.429900 0.345335
316.642100 0.150335
316.854300 -0.113593
317.066600 0.482533
317.278800 0.211664
317.491100 0.327778
317.703300 0.330222
317.915600 0.456968
318.127900 0.350242
318.340200 1.529403
318.552500 0.403403
318.764900 0.356777
318.977200 0.327676
319.189600 -0.040213
319.401900 0.102836
319.614300 0.101068
319.826700 0.028829
320.039200 0.390870
320.251600 0.227865
320.464000 0.402266
320.676500 0.087465
320.889000 -0.461474
321.101400 0.110592
321.313900 0.669787
321.526500 0.287374
321.739000 0.236698
321.951500 0.293064
322.164100 0.114712
322.376600 0.264547
322.589200 0.232204
322.801800 0.082502
323.014400 0.169241
323.227000 0.087470
323.439700 0.190443
323.652300 0.370921
323.865000 0.348215
324.077700 0.330479
324.290400 0.329356
324.503100 -0.006490
324.715800 0.361330
324.928500 0.052050
325.141200 0.174927
325.354000 0.308224
325.566800 0.372007
325.779600 0.251639
325.992400 0.120751
326.205200 0.479994
326.418000 0.409156
326.630800 0.262805
326.843700 0.340561
327.056600 0.172145
327.269400 0.261941
327.482300 0.178073
327.695200 0.178599
327.908200 0.054771
328.121100 0.260249
328.334000 0.188263
328.547000 0.577125
328.760000 0.114955
328.973000 0.275139
329.186000 0.065725
329.399000 0.367821
329.612000 0.493473
329.825100 0.172342
330.038100 0.327169
330.251200 0.376972
330.464300 0.257069
330.677400 0.480452
330.890500 0.489231
331.103600 0.330846
331.316700 0.311759
331.529900 0.423527
331.743100 0.187505
331.956200 0.268642
332.169400 0.182685
332.382600 0.420506
332.595900 0.287893
332.809100 0.319659
333.022300 0.276917
333.235600 0.586973
333.448900 0.280303
333.662200 0.435612
333.875500 0.233522
334.088800 0.328480
334.302100 0.417475
334.515400 0.391335
334.728800 0.116955
334.942200 0.207827
335.155500 0.236045
335.368900 0.487819
335.582300 0.305020
335.795800 0.283042
336.009200 0.396884
336.222700 0.320471
336.436100 0.383824
336.649600 0.387540
336.863100 0.226729
337.076600 0.487964
337.290100 0.401341
337.503600 0.108024
337.717200 0.180422
337.930700 0.448789
338.144300 0.307404
338.357900 0.230267
338.571500 0.287534
338.785100 0.308229
338.998700 0.241144
339.212400 0.487953
339.426000 0.260665
339.639700 0.428969
339.853300 0.290941
340.067000 0.330611
340.280700 0.300211
340.494500 0.451418
340.708200 0.326414
340.921900 0.318944
341.135700 0.216120
341.349500 0.438346
341.563300 0.318532
341.777100 0.397973
341.990900 0.313574
342.204700 0.428297
342.418500 0.392545
342.632400 0.471194
342.846300 0.311534
343.060100 0.284613
343.274000 0.309427
343.487900 0.421345
343.701900 0.276671
343.915800 0.316335
344.129700 0.419987
344.343700 0.292285
344.557700 0.463255
344.771700 0.378009
344.985700 0.422720
345.199700 0.278785
345.413700 0.326055
345.627700 0.301603
345.841800 0.306447
346.055900 0.432684
346.269900 0.403262
346.484000 0.398105
346.698100 0.234955
346.912300 0.175112
347.126400 0.323153
347.340600 0.433781
347.554700 0.344942
347.768900 0.439163
347.983100 0.521937
348.197300 0.319287
348.411500 0.203629
348.625700 0.365290
348.840000 0.373700
349.054200 0.410476
349.268500 0.413562
349.482800 0.294171
349.697100 0.289076
349.911400 0.275446
350.125700 0.288046
350.340000 0.306730
350.554400 0.365137
350.768700 0.269650
350.983100 0.298936
351.197500 0.298404
351.411900 0.323572
351.626300 0.418233
351.840700 0.295579
352.055200 0.345154
352.269600 0.388694
352.484100 0.332803
352.698600 0.371188
352.913100 0.287583
353.127600 0.365777
353.342100 0.371004
353.556600 0.412650
353.771200 0.388650
353.985800 0.225390
354.200300 0.289127
354.414900 0.294994
354.629500 0.396196
354.844100 0.312580
355.058800 0.330801
355.273400 0.249064
355.488100 0.296820
355.702700 0.281500
355.917400 0.237957
356.132100 0.350040
356.346800 0.357305
356.561500 0.338221
356.776300 0.314126
356.991000 0.395365
357.205800 0.330495
357.420600 0.260742
357.635300 0.336132
357.850100 0.296313
358.065000 0.316706
358.279800 0.259976
358.494600 0.326728
358.709500 0.285989
358.924300 0.316263
359.139200 0.272357
359.354100 0.251646
359.569000 0.258262
359.783900 0.360411
359.998900 0.148375
360.213800 0.298796
360.428800 0.344589
360.643800 0.262504
360.858700 0.175189
361.073700 0.287539
361.288800 0.271658
361.503800 0.349849
361.718800 0.186580
361.933900 0.252535
362.148900 0.298614
362.364000 0.248780
362.579100 0.283682
362.794200 0.174842
363.009300 0.318131
363.224500 0.222118
363.439600 0.230560
363.654800 0.300670
363.869900 0.230136
364.085100 0.241217
364.300300 0.179836
364.515500 0.287024
364.730800 0.208296
364.946000 0.259936
365.161200 0.197189
365.376500 0.318536
365.591800 0.174963
365.807100 0.270589
366.022400 0.194256
366.237700 0.264708
366.453000 0.259785
366.668400 0.216869
366.883700 0.160272
367.099100 0.208802
367.314500 0.185328
367.529900 0.229291
367.745300 0.179322
367.960700 0.210738
368.176100 0.158775
368.391600 0.249919
368.607000 0.181609
368.822500 0.197610
369.038000 0.265944
369.253500 0.208255
369.469000 0.185902
369.684500 0.257133
369.900100 0.213319
370.115600 0.137232
370.331200 0.138376
370.546800 0.179058
370.762400 0.181291
370.978000 0.248371
371.193600 0.152333
371.409200 0.179970
371.624900 0.219396
371.840500 0.234578
372.056200 0.202447
372.271900 0.151836
372.487600 0.211420
372.703300 0.170111
372.919000 0.148909
373.134800 0.161137
373.350500 0.143118
373.566300 0.161951
373.782000 0.123481
373.997800 0.190041
374.213600 0.116630
374.429400 0.187200
374.645300 0.179846
374.861100 0.138015
375.077000 0.150199
375.292800 0.106199
375.508700 0.127022
375.724600 0.138373
375.940500 0.137706
376.156400 0.154565
376.372400 0.150419
376.588300 0.122522
376.804300 0.144744
377.020300 0.164114
377.236200 0.144683
377.452200 0.137973
377.668200 0.117980
377.884300 0.142490
378.100300 0.103092
378.316400 0.145410
378.532400 0.102030
378.748500 0.145807
378.964600 0.139558
379.180700 0.108830
379.396800 0.110985
379.612900 0.110544
379.829100 0.111361
380.045200 0.115733
380.261400 0.127963
380.477600 0.159097
380.693800 0.068342
380.910000 0.133557
381.126200 0.050839
381.342400 0.119054
381.558700 0.063989
381.774900 0.061389
381.991200 0.092210
382.207500 0.094952
382.423800 0.059227
382.640100 0.088846
382.856400 0.092774
383.072800 0.073348
383.289100 0.088401
383.505500 0.078692
383.721900 0.102739
383.938200 0.058052
384.154600 0.064316
384.371100 0.078998
384.587500 0.086151
384.803900 0.102591
385.020400 0.062589
385.236800 0.084444
385.453300 0.105356
385.669800 0.055302
385.886300 0.067979
386.102800 0.071111
386.319400 0.062034
386.535900 0.072247
386.752500 0.087486
386.969000 0.066578
387.185600 0.005888
387.402200 0.068034
387.618800 0.058130
387.835500 0.046496
388.052100 0.070176
388.268700 0.052931
388.485400 0.041845
388.702100 0.095280
388.918800 0.039334
389.135500 0.072136
389.352200 0.059899
389.568900 0.047445
389.785600 0.057970
390.002400 0.046659
390.219200 0.020815
390.435900 0.067695
390.652700 0.046286
390.869500 0.068805
391.086300 0.041257
391.303200 0.048727
391.520000 0.055484
391.736900 0.049958
391.953700 0.030347
392.170600 0.052436
392.387500 0.041610
392.604400 0.063171
392.821300 0.020002
393.038300 0.030398
393.255200 0.046491
393.472200 0.027001
393.689100 0.032204
393.906100 0.022293
394.123100 0.029365
394.340100 0.037161
394.557200 0.021017
394.774200 0.016396
394.991200 0.005895
395.208300 0.039533
395.425400 0.019023
395.642500 0.038611
395.859600 0.016017
396.076700 0.022650
396.293800 0.030749
396.510900 0.037781
396.728100 0.035476
396.945300 0.056396
397.162400 0.026358
397.379600 0.040328
397.596800 0.031177
397.814000 0.022600
398.031300 0.060773
398.248500 0.015391
398.465800 0.022941
398.683000 0.013332
398.900300 0.036639
399.117600 0.010397
399.334900 0.025529
399.552200 0.022021
399.769600 -0.002652
399.986900 0.017917
400.204300 0.006504
400.421600 0.005432
400.639000 0.038128
400.856400 0.027884
401.073800 0.014859
401.291200 0.026309
401.508700 0.020905
401.726100 0.024097
401.943600 -0.002016
402.161000 0.000486
402.378500 -0.002042
402.596000 0.011842
402.813500 -0.012180
403.031000 0.029686
403.248600 0.024591
403.466100 0.006490
403.683700 0.013157
403.901300 0.005841
404.118900 0.001652
404.336500 0.006493
404.554100 0.004676
404.771700 0.021256
404.989300 0.006975
405.207000 0.015962
405.424600 0.024540
405.642300 0.015506
405.860000 0.012811
406.077700 0.030128
406.295400 0.008557
406.513100 0.003952
406.730900 0.001587
406.948600 0.002929
407.166400 0.029267
407.384200 0.009050
407.602000 0.000269
407.819800 0.017376
408.037600 0.029631
408.255400 -0.002804
408.473300 0.012323
408.691100 0.018436
408.909000 0.005882
409.126900 0.001007
409.344800 0.001566
409.562700 -0.013690
409.780600 0.027413
409.998500 0.026049
410.216500 -0.007810
410.434400 0.003520
410.652400 -0.006130
410.870400 0.002404
411.088400 0.009347
411.306400 -0.000629
411.524400 0.020001
411.742400 -0.002029
411.960500 -0.001889
412.178500 0.010639
412.396600 -0.006205
412.614700 -0.003331
412.832800 -0.000661
413.050900 0.025685
413.269000 -0.006602
413.487100 0.037741
413.705300 0.009789
413.923400 0.012455
414.141600 0.002337
414.359800 0.004842
414.578000 0.005978
414.796200 -0.005378
415.014400 0.018049
415.232600 -0.017858
415.450900 0.001371
415.669200 -0.018695
415.887400 0.018045
416.105700 0.026480
416.324000 0.021670
416.542300 0.006678
416.760600 0.008520
416.979000 -0.001535
417.197300 -0.004047
417.415700 -0.003876
417.634100 -0.005162
417.852400 0.010835
418.070800 0.003713
418.289300 0.011100
418.507700 0.004159
418.726100 -0.007867
418.944600 -0.009123
419.163000 -0.010310
419.381500 0.006622
419.600000 0.008514
419.818500 0.011168
420.037000 -0.006762
420.255500 -0.007006
420.474100 0.005274
420.692600 -0.001570
420.911200 0.003250
421.129800 0.007125
421.348300 0.005145
421.566900 0.001985
421.785600 0.019789
422.004200 0.014780
422.222800 -0.001438
422.441500 0.019793
422.660100 -0.010879
422.878800 0.005375
423.097500 0.004659
423.316200 0.011865
423.534900 -0.002755
423.753600 0.006921
423.972400 -0.000687
424.191100 0.018836
424.409900 -0.003558
424.628700 -0.007041
424.847500 0.009438
425.066300 0.010472
425.285100 0.004065
425.503900 0.003156
425.722800 -0.004120
425.941600 0.001037
426.160500 -0.001285
426.379300 0.003253
426.598200 0.003014
426.817100 -0.008898
427.036100 0.009699
427.255000 -0.000065
427.473900 0.006181
427.692900 0.018701
427.911800 0.022261
428.130800 0.011803
428.349800 0.010498
428.568800 -0.001886
428.787800 -0.005942
429.006800 0.011327
429.225900 0.016818
429.444900 0.010981
429.664000 -0.007649
429.883100 0.010412
430.102200 0.018788
430.321300 0.006500
430.540400 0.012046
430.759500 -0.001536
430.978700 0.022828
431.197800 0.010798
431.417000 -0.016140
431.636200 0.006263
431.855300 -0.000563
432.074500 0.006006
432.293800 0.000630
432.513000 0.018235
432.732200 0.002388
432.951500 0.017437
433.170700 0.024770
433.390000 -0.012307
433.609300 0.023282
433.828600 0.002502
434.047900 0.017753
434.267300 0.022227
434.486600 -0.011334
434.705900 -0.016653
434.925300 0.018665
435.144700 0.000809
435.364100 0.008958
435.583500 0.004884
435.802900 -0.003213
436.022300 0.002963
436.241800 0.009285
436.461200 0.009519
436.680700 0.007597
436.900100 0.011449
437.119600 0.000274
437.339100 -0.000905
437.558600 -0.005036
437.778200 -0.001746
437.997700 -0.002841
438.217300 -0.003941
438.436800 -0.005849
438.656400 0.003301
438.876000 -0.009916
439.095600 -0.004819
439.315200 0.019253
439.534800 -0.017306
439.754500 -0.011227
439.974100 0.019510
440.193800 0.017097
440.413500 0.012587
440.633100 0.007712
440.852800 -0.000338
441.072500 0.014118
441.292300 0.011299
441.512000 0.004290
441.731800 0.018057
441.951500 0.003360
442.171300 0.004374
442.391100 -0.005212
442.610900 0.005031
442.830700 -0.008185
443.050500 0.001908
443.270300 -0.015775
443.490200 -0.020156
443.710100 0.007723
443.929900 0.002649
444.149800 0.005717
444.369700 -0.004244
444.589600 -0.007479
444.809500 0.005658
445.029500 0.015169
445.249400 -0.007210
445.469400 0.011664
445.689400 0.002654
445.909300 -0.015933
446.129300 0.001396
446.349300 0.010162
446.569400 0.009909
446.789400 0.005423
447.009400 0.019652
447.229500 -0.008546
447.449600 -0.001617
447.669600 0.006382
447.889700 0.005851
448.109800 -0.003814
448.330000 -0.011113
448.550100 0.013020
448.770200 -0.001142
448.990400 0.002611
449.210600 0.013118
449.430700 -0.008243
449.650900 0.005868
449.871100 -0.001871
450.091400 0.009954
450.311600 0.003358
450.531800 -0.001987
450.752100 0.009896
450.972400 -0.013930
451.192600 -0.007737
451.412900 0.019753
451.633200 -0.012724
451.853500 0.003101
452.073900 0.007990
452.294200 0.009484
452.514600 0.006499
452.734900 -0.013352
452.955300 -0.004548
453.175700 0.001033
453.396100 0.009001
453.616500 -0.006880
453.836900 -0.006890
454.057400 0.011128
454.277800 0.002588
454.498300 -0.006841
454.718800 -0.006299
454.939300 0.000575
455.159700 -0.007383
455.380300 0.002827
455.600800 -0.006305
455.821300 0.001899
456.041900 -0.004417
456.262400 0.011004
456.483000 0.013188
456.703600 -0.022550
456.924200 0.006996
457.144800 -0.003693
457.365400 0.009496
457.586000 0.002795
457.806700 -0.001011
458.027400 0.002605
458.248000 -0.007014
458.468700 0.006361
458.689400 -0.009050
458.910100 0.011223
459.130800 0.020134
459.351600 -0.006323
459.572300 -0.002535
459.793100 -0.010034
460.013800 -0.008639
460.234600 0.015512
460.455400 0.013382
460.676200 -0.014519
460.897000 0.006199
461.117800 0.011703
461.338700 -0.013450
461.559500 0.018122
461.780400 -0.013068
462.001300 0.025025
462.222200 -0.011561
462.443100 -0.004631
462.664000 0.010887
462.884900 0.000138
463.105900 0.007417
463.326800 0.003075
463.547800 0.008556
463.768700 0.007903
463.989700 0.012499
464.210700 -0.010463
464.431700 0.006017
464.652800 0.002528
464.873800 0.018843
465.094800 0.006459
465.315900 0.005881
465.537000 -0.000444
465.758100 0.017353
465.979200 0.006083
466.200300 0.004081
466.421400 0.001268
466.642500 0.004604
466.863700 0.002376
467.084800 -0.007940
467.306000 0.002422
467.527200 0.015950
467.748400 0.009085
467.969600 0.010231
468.190800 -0.000218
468.412000 0.016217
468.633300 0.024801
468.854500 0.014631
469.075800 0.007172
469.297000 -0.006343
469.518300 0.012545
469.739600 0.014252
469.961000 -0.025148
470.182300 -0.031054
470.403600 -0.002931
470.625000 0.002992
470.846300 0.015057
471.067700 -0.002154
471.289100 0.024420
471.510500 -0.011213
471.731900 -0.011448
471.953300 -0.007807
472.174800 0.022158
472.396200 -0.016319
472.617700 0.007128
472.839100 -0.010793
473.060600 0.019889
473.282100 0.023481
473.503600 -0.000589
473.725100 0.021045
473.946700 0.020670
474.168200 0.003761
474.389800 -0.000774
474.611300 0.011962
474.832900 0.002207
475.054500 0.006392
475.276100 0.000883
475.497700 -0.006269
475.719300 0.001054
475.941000 0.012859
476.162600 0.005528
476.384300 0.004680
476.606000 -0.001987
476.827700 0.004566
477.049400 -0.000524
477.271100 0.008751
477.492800 -0.000759
477.714500 -0.013378
477.936300 0.018599
478.158000 0.005882
478.379800 0.026824
478.601600 0.006461
478.823400 0.008788
479.045200 0.006838
479.267000 0.003874
479.488800 -0.002518
479.710700 0.012525
479.932500 0.002569
480.154400 0.017960
480.376300 -0.013340
480.598200 0.013760
480.820100 -0.010420
481.042000 -0.008770
481.263900 0.008014
481.485900 -0.007677
481.707800 -0.004543
481.929800 0.001897
482.151700 0.010175
482.373700 -0.008660
482.595700 -0.004083
482.817700 0.007445
483.039800 0.009560
483.261800 0.003676
483.483800 0.025350
483.705900 0.002280
483.928000 0.007684
484.150100 0.012973
484.372100 0.005685
484.594300 -0.004905
484.816400 -0.003791
485.038500 0.006025
485.260600 0.012271
485.482800 0.017221
485.705000 0.009021
485.927100 0.007296
486.149300 0.007275
486.371500 0.006513
486.593700 0.013709
486.816000 0.006417
487.038200 0.010890
487.260500 0.011134
487.482700 0.002662
487.705000 0.002371
487.927300 0.009068
488.149600 0.011401
488.371900 -0.000457
488.594200 -0.002316
488.816500 -0.009753
489.038900 0.003132
489.261200 0.004677
489.483600 -0.014061
489.706000 -0.000801
489.928400 -0.001611
490.150800 0.002919
490.373200 -0.001608
490.595600 -0.003268
490.818000 0.003216
491.040500 0.013532
491.263000 -0.011612
491.485400 0.020363
491.707900 -0.001583
491.930400 0.015543
492.152900 -0.005061
492.375500 -0.020177
492.598000 0.010459
492.820500 0.015229
493.043100 0.014001
493.265700 0.014894
493.488200 0.004604
493.710800 -0.009745
493.933400 -0.007972
494.156100 0.005219
494.378700 0.021573
494.601300 0.016099
494.824000 0.015929
495.046600 0.003648
495.269300 0.006961
495.492000 0.007450
495.714700 -0.004008
495.937400 0.001840
496.160100 0.009102
496.382900 0.007484
496.605600 0.004179
496.828400 0.004566
497.051100 -0.000928
497.273900 0.014725
497.496700 0.010133
497.719500 0.002347
497.942300 -0.001121
498.165200 0.025141
498.388000 0.006533
498.610900 -0.000131
498.833700 0.000159
499.056600 -0.001269
499.279500 0.006122
499.502400 0.005483
499.725300 0.014244
499.948200 0.005233
500.171200 -0.008272
500.394100 0.014522
500.617100 0.001547
500.840000 0.006008
501.063000 0.008477
501.286000 0.019840
501.509000 -0.006760
501.732000 -0.000264
501.955100 0.008122
502.178100 0.000782
502.401200 0.003086
502.624200 0.010017
502.847300 -0.004874
503.070400 -0.010993
503.293500 -0.002055
503.516600 -0.003073
503.739700 0.005742
503.962800 -0.005853
504.186000 -0.006764
504.409200 -0.000595
504.632300 0.001667
504.855500 0.005532
505.078700 0.011133
505.301900 0.021167
505.525100 0.019359
505.748300 0.011399
505.971600 -0.008578
506.194800 0.013694
506.418100 0.017746
506.641400 -0.004444
506.864700 0.010633
507.088000 -0.004669
507.311300 -0.006151
507.534600 0.015142
507.757900 0.023483
507.981300 0.015519
508.204600 0.001215
508.428000 0.010170
508.651400 -0.014825
508.874800 0.013920
509.098200 0.003499
509.321600 -0.006446
509.545000 0.004250
509.768500 0.008081
509.991900 0.000949
510.215400 0.013847
510.438800 -0.015913
510.662300 0.009424
510.885800 -0.002323
511.109300 0.024160
511.332900 0.005557
511.556400 0.009543
511.779900 0.015237
512.003500 0.021711
512.227000 0.025319
512.450600 -0.014916
512.674200 -0.000039
512.897800 0.018662
513.121400 0.018143
513.345100 0.007797
513.568700 -0.007543
513.792300 -0.008902
514.016000 -0.000686
514.239700 0.020009
514.463400 0.003418
514.687100 -0.009193
514.910800 -0.002198
515.134500 0.004632
515.358200 -0.003487
515.581900 -0.000484
515.805700 0.009637
516.029500 0.002340
516.253200 0.002375
516.477000 0.025922
516.700800 0.020732
516.924600 -0.015947
517.148500 0.000655
517.372300 0.025184
517.596100 -0.000543
517.820000 0.043599
518.043900 0.015586
518.267700 0.004844
518.491600 0.003381
518.715500 -0.000065
518.939500 0.008764
519.163400 -0.007054
519.387300 0.014146
519.611300 0.011114
519.835200 0.009637
520.059200 0.010549
520.283200 0.020407
520.507200 0.008857
520.731200 0.010610
520.955200 0.021450
521.179200 -0.002843
521.403300 0.001931
521.627300 -0.019218
521.851400 -0.012459
522.075500 -0.002407
522.299600 -0.005320
522.523700 -0.016111
522.747800 0.000519
522.971900 0.026180
523.196000 0.011359
523.420200 -0.005342
523.644300 -0.012358
523.868500 -0.000415
524.092700 -0.001884
524.316900 0.007101
524.541100 0.002619
524.765300 -0.000592
524.989500 0.015044
525.213800 0.027026
525.438000 0.014824
525.662300 0.033506
525.886500 0.004969
526.110800 0.003947
526.335100 0.007827
526.559400 -0.012595
526.783700 0.010196
527.008100 0.002780
527.232400 -0.006514
527.456800 0.015635
527.681100 -0.002824
527.905500 -0.009439
528.129900 0.003639
528.354300 -0.002183
528.578700 0.016535
528.803100 0.010534
529.027600 -0.009261
529.252000 0.021017
529.476500 0.000528
529.700900 0.013773
529.925400 0.002723
530.149900 -0.015478
530.374400 0.028416
530.598900 0.003979
530.823400 0.010446
531.048000 0.004960
531.272500 0.013118
531.497100 0.010245
531.721700 0.001200
531.946200 0.010678
532.170800 -0.013745
532.395400 -0.014235
532.620000 0.010381
532.844700 -0.003964
533.069300 0.018259
533.294000 0.010760
533.518600 -0.000139
533.743300 -0.020394
533.968000 0.028938
534.192700 -0.009046
534.417400 0.009498
534.642100 0.016921
534.866800 0.003351
535.091600 0.002712
535.316300 0.000265
535.541100 0.005522
535.765900 0.002273
535.990700 0.019752
536.215500 -0.006353
536.440300 -0.012716
536.665100 0.024092
536.889900 -0.000522
537.114800 -0.012170
537.339600 -0.008589
537.564500 0.024466
537.789400 0.004824
538.014300 0.007030
538.239200 0.012998
538.464100 0.006861
538.689000 -0.019129
538.913900 -0.001304
539.138900 0.001139
539.363800 0.007783
539.588800 -0.003606
539.813800 0.028059
540.038800 0.017692
540.263800 0.012917
540.488800 0.017292
540.713800 -0.013005
540.938900 -0.009511
541.163900 -0.006912
541.389000 -0.016198
541.614000 -0.009559
541.839100 -0.001869
542.064200 0.000197
542.289300 0.026465
542.514400 0.004145
542.739600 -0.003348
542.964700 0.014035
543.189900 0.023425
543.415000 0.022725
543.640200 0.007013
543.865400 0.008607
544.090600 -0.002303
544.315800 0.000230
544.541000 0.011799
544.766200 0.010796
544.991500 0.000525
545.216700 0.004419
545.442000 0.023118
545.667300 0.012465
545.892600 0.003286
546.117900 0.007802
546.343200 0.026531
546.568500 0.004248
546.793800 0.020914
547.019200 0.001472
547.244500 -0.005688
547.469900 0.006397
547.695300 -0.001491
547.920600 0.005134
548.146000 0.011468
548.371500 0.002908
548.596900 0.004829
548.822300 0.001522
549.047800 0.005507
549.273200 0.002154
549.498700 -0.015644
549.724200 0.010968
549.949600 0.013669
550.175100 -0.013360
550.400700 -0.015610
550.626200 0.023118
550.851700 0.017300
551.077300 0.021367
551.302800 0.000695
551.528400 -0.007733
551.754000 0.012053
551.979600 0.020096
552.205200 0.000831
552.430800 -0.001868
552.656400 0.000762
552.882000 0.014238
553.107700 0.000425
553.333300 0.002016
553.559000 -0.008788
553.784700 0.007344
554.010400 0.018351
554.236100 0.006009
554.461800 0.001173
554.687500 0.015960
554.913200 0.000974
555.139000 -0.000317
555.364800 0.001358
555.590500 -0.002632
555.816300 -0.009943
556.042100 0.020751
556.267900 0.010463
556.493700 0.018653
556.719500 -0.011144
556.945400 0.009218
557.171200 -0.001331
557.397100 0.010811
557.623000 0.000831
557.848800 0.002659
558.074700 0.000819
558.300600 -0.005912
558.526600 0.000659
558.752500 0.013198
558.978400 -0.011687
559.204400 -0.006777
559.430300 -0.001461
559.656300 -0.000387
559.882300 -0.004404
560.108300 0.000137
560.334300 -0.000909
560.560300 -0.004655
560.786300 -0.001588
561.012400 -0.008615
561.238400 0.005614
561.464500 0.009484
561.690500 0.000346
561.916600 -0.003120
562.142700 -0.009756
562.368800 0.009689
562.594900 0.021450
562.821100 0.017020
563.047200 0.014848
563.273300 0.006115
563.499500 -0.018307
563.725700 0.011904
563.951900 0.000762
564.178100 0.006931
564.404300 0.004123
564.630500 0.015261
564.856700 -0.001740
565.082900 0.003954
565.309200 0.009081
565.535500 0.008998
565.761700 -0.005530
565.988000 0.012904
566.214300 -0.015087
566.440600 -0.012603
566.666900 0.006452
566.893200 0.008574
567.119600 -0.003942
567.345900 0.007236
567.572300 -0.003945
567.798700 -0.012994
568.025000 -0.000114
568.251400 0.006829
568.477800 -0.009420
568.704300 0.000038
568.930700 -0.006055
569.157100 0.002489
569.383600 -0.002487
569.610000 -0.004685
569.836500 -0.003319
570.063000 -0.002640
570.289500 0.002778
570.516000 0.007834
570.742500 -0.005506
570.969000 -0.001462
571.195600 0.008224
571.422100 0.000826
571.648700 -0.001174
571.875200 -0.001639
572.101800 0.000179
572.328400 0.008598
572.555000 0.000425
572.781600 0.014181
573.008200 0.008765
573.234900 0.008172
573.461500 0.001709
573.688200 0.002425
573.914900 0.007688
574.141500 0.008119
574.368200 0.006592
574.594900 0.002352
574.821600 -0.001009
575.048400 0.007720
575.275100 0.001009
575.501800 0.011474
575.728600 0.006220
575.955400 0.001683
576.182100 0.012396
576.408900 0.007481
576.635700 0.005391
576.862600 0.006557
577.089400 0.003635
577.316200 0.003164
577.543100 0.009895
577.769900 0.001198
577.996800 0.006542
578.223700 0.011180
578.450500 0.007317
578.677400 0.005403
578.904400 0.007963
579.131300 0.007832
579.358200 0.004314
579.585100 0.001298
579.812100 0.008555
580.039100 0.008115
580.266000 -0.000821
580.493000 0.006692
580.720000 0.006038
580.947000 0.000234
581.174100 0.007106
581.401100 0.003667
581.628100 0.003865
581.855200 0.003782
582.082200 0.003650
582.309300 0.001745
582.536400 0.002145
582.763500 -0.000716
582.990600 0.002535
583.217700 -0.004263
583.444900 -0.001170
583.672000 0.004076
583.899100 0.002170
584.126300 0.000110
584.353500 -0.007421
584.580700 -0.001678
584.807900 0.012286
585.035100 0.009131
585.262300 0.010181
585.489500 0.010103
585.716700 0.004533
585.944000 0.004057
586.171300 0.003279
586.398500 0.002566
586.625800 0.008597
586.853100 0.003062
587.080400 0.001422
587.307700 -0.005714
587.535000 0.003756
587.762400 -0.005683
587.989700 -0.001233
588.217100 0.006128
588.444500 0.011854
588.671800 -0.001175
588.899200 0.002951
589.126600 0.002966
589.354000 0.012255
589.581500 -0.004104
589.808900 0.008614
590.036300 0.006596
590.263800 0.003211
590.491300 0.003363
590.718700 -0.003446
590.946200 -0.001482
591.173700 0.005436
591.401200 0.011129
591.628800 0.011319
591.856300 -0.003198
592.083800 0.004081
592.311400 -0.001750
592.538900 0.002261
592.766500 0.008659
592.994100 0.010590
593.221700 0.009193
593.449300 0.007907
593.676900 0.001228
593.904600 0.006768
594.132200 0.002278
594.359800 0.006439
594.587500 -0.003886
594.815200 0.000174
595.042900 0.007469
595.270500 0.011358
595.498300 0.005695
595.726000 0.012120
595.953700 0.009836
596.181400 0.005715
596.409200 0.007590
596.636900 0.006469
596.864700 0.011744
597.092500 0.009967
597.320300 0.011799
597.548100 0.015715
597.775900 0.014498
598.003700 0.008745
598.231500 0.013909
598.459400 0.015500
598.687200 0.012463
598.915100 0.018824
599.143000 0.009555
599.370900 0.017133
599.598800 0.012000
599.826700 0.004051
600.054600 0.013010
600.282500 0.009539
600.510500 0.003296
600.738400 0.000034
600.966400 0.000330
601.194400 0.004213
601.422300 -0.000525
601.650300 0.005361
601.878300 0.000740
602.106400 0.010537
602.334400 0.009381
602.562400 0.007475
602.790500 0.008221
603.018500 0.005305
603.246600 0.005713
603.474700 0.002484
603.702800 0.011525
603.930900 0.015436
604.159000 0.016824
604.387100 0.013207
604.615200 0.012896
604.843400 0.003614
605.071500 0.008921
605.299700 0.006830
605.527900 0.004583
605.756100 0.003808
605.984300 0.001426
606.212500 -0.003529
606.440700 -0.005045
606.668900 -0.004236
606.897200 -0.002896
607.125400 0.003163
607.353700 -0.003575
607.581900 0.007922
607.810200 -0.000775
608.038500 0.004355
608.266800 -0.003843
608.495100 -0.007020
608.723500 -0.007814
608.951800 0.009266
609.180100 -0.004933
609.408500 0.008295
609.636900 0.000510
609.865300 0.011062
610.093600 0.004097
610.322000 0.008972
610.550500 0.009524
610.778900 0.002623
611.007300 -0.001053
611.235700 0.012074
611.464200 0.012631
611.692700 0.001241
611.921100 0.007089
612.149600 0.016862
612.378100 0.010068
612.606600 0.013023
612.835100 0.012280
613.063700 0.011496
613.292200 -0.000519
613.520800 0.003776
613.749300 0.004878
613.977900 0.009825
614.206500 0.011091
614.435100 0.010709
614.663700 0.013889
614.892300 0.003069
615.120900 0.005282
615.349500 0.019279
615.578200 0.007354
615.806800 0.009091
616.035500 0.007573
616.264200 0.010731
616.492900 0.008251
616.721600 0.006954
616.950300 0.004812
617.179000 -0.000055
617.407700 0.006603
617.636500 -0.002485
617.865200 0.009433
618.094000 0.007771
618.322700 0.001021
618.551500 -0.002516
618.780300 -0.001289
619.009100 0.003134
619.237900 0.011655
619.466700 0.010457
619.695600 -0.004376
619.924400 0.007738
620.153300 0.008353
620.382100 0.008444
620.611000 0.001097
620.839900 -0.001813
621.068800 -0.002080
621.297700 0.003202
621.526600 -0.007201
621.755600 -0.005165
621.984500 0.003609
622.213500 -0.002092
622.442400 0.007419
622.671400 0.016691
622.900400 -0.001881
623.129400 0.011544
623.358400 0.005962
623.587400 0.010508
623.816400 -0.010737
624.045400 0.006872
624.274500 0.006724
624.503500 -0.000232
624.732600 -0.005815
624.961700 0.007533
625.190800 -0.003580
625.419900 0.002567
625.649000 0.010632
625.878100 0.007923
626.107200 -0.007406
626.336400 -0.003399
626.565500 0.024790
626.794700 0.005042
627.023800 -0.006905
627.253000 -0.002187
627.482200 0.008188
627.711400 -0.003276
627.940600 0.019974
628.169800 0.007409
628.399100 -0.005199
628.628300 -0.002097
628.857600 -0.003701
629.086800 -0.002098
629.316100 0.003136
629.545400 0.002471
629.774700 0.016084
630.004000 0.010048
630.233300 0.011048
630.462600 0.003594
630.692000 0.018091
630.921300 0.013453
631.150700 0.002653
631.380100 -0.003515
631.609400 0.002995
631.838800 0.005590
632.068200 -0.012557
632.297600 0.008114
632.527100 0.008515
632.756500 0.012532
632.985900 0.007513
633.215400 0.012131
633.444800 0.002674
633.674300 0.010650
633.903800 0.002927
634.133300 0.008168
634.362800 0.003046
634.592300 0.005413
634.821800 0.005151
635.051400 0.019563
635.280900 0.017921
635.510500 -0.021105
635.740000 0.011304
635.969600 0.021865
636.199200 0.002500
636.428800 -0.002523
636.658400 0.010272
636.888000 0.009509
637.117700 0.012517
637.347300 -0.007263
637.577000 0.020036
637.806600 0.036095
638.036300 0.000186
638.266000 0.004025
638.495700 0.018439
638.725400 -0.000559
638.955100 0.013334
639.184800 0.004094
639.414500 0.011116
639.644300 -0.003026
639.874000 0.015136
640.103800 0.005014
640.333600 -0.010053
640.563300 -0.023555
640.793100 -0.005719
641.022900 -0.002814
641.252800 0.008379
641.482600 0.027206
641.712400 -0.007388
641.942300 0.003858
642.172100 0.007407
642.402000 -0.008657
642.631900 -0.020361
642.861700 0.010419
643.091600 0.017567
643.321600 -0.003073
643.551500 -0.018681
643.781400 0.013857
644.011300 0.002701
644.241300 0.026716
644.471200 0.003298
644.701200 -0.004103
644.931200 0.014630
645.161200 -0.009193
645.391200 -0.008007
645.621200 -0.002737
645.851200 -0.009813
646.081200 -0.002620
646.311300 0.013911
646.541300 0.031795
646.771400 -0.012928
647.001500 0.009670
647.231600 0.009111
647.461600 0.021563
647.691800 -0.006568
647.921900 -0.004718
648.152000 -0.002129
648.382100 -0.007838
648.612300 0.022711
648.842400 -0.002002
649.072600 0.026312
649.302800 -0.002414
649.532900 0.024147
649.763100 0.002271
649.993300 -0.001151
650.223600 0.024340
650.453800 0.001861
650.684000 0.001067
650.914300 0.008694
651.144500 0.010412
651.374800 0.021996
651.605100 0.010787
651.835400 -0.009567
652.065700 -0.001771
652.296000 -0.016965
652.526300 -0.012578
652.756600 -0.002566
652.987000 0.006443
653.217300 0.000335
653.447700 0.027903
653.678000 0.007968
653.908400 -0.000390
654.138800 0.027207
654.369200 0.022824
654.599600 0.014267
654.830000 0.006013
655.060500 0.033254
655.290900 0.029313
655.521300 0.034634
655.751800 0.024565
655.982300 0.002910
656.212800 0.000974
656.443300 0.001458
656.673800 0.001232
656.904300 0.002850
657.134800 0.022888
657.365300 0.022169
657.595900 0.018286
657.826400 0.021382
658.057000 0.024385
658.287500 0.025477
658.518100 0.020689
658.748700 0.024552
658.979300 0.022198
659.209900 0.024010
659.440600 0.019227
659.671200 0.020098
659.901800 0.010344
660.132500 0.002810
660.363200 0.018128
660.593800 0.030027
660.824500 -0.002589
661.055200 0.009168
661.285900 0.018890
661.516600 0.014189
661.747400 0.040321
661.978100 0.002734
662.208800 0.034798
662.439600 0.004531
662.670400 0.037329
662.901100 0.023575
663.131900 0.007957
663.362700 0.004654
663.593500 0.028823
663.824300 0.013094
664.055200 -0.018166
664.286000 0.000635
664.516800 0.026324
664.747700 0.035248
664.978600 0.002364
665.209400 0.017856
665.440300 0.033880
665.671200 0.019473
665.902100 0.028857
666.133000 -0.004994
666.364000 0.007817
666.594900 0.007375
666.825900 0.003146
667.056800 0.024495
667.287800 0.014248
667.518800 0.025289
667.749700 0.004511
667.980700 0.016500
668.211700 -0.009069
668.442800 0.000164
668.673800 0.037823
668.904800 0.012822
669.135900 0.016753
669.366900 0.011276
669.598000 -0.011411
669.829100 -0.002071
670.060200 -0.014830
670.291300 0.026408
670.522400 0.004690
670.753500 0.007418
670.984600 0.025851
671.215700 0.014755
671.446900 0.042979
671.678100 0.013714
671.909200 0.005028
672.140400 0.018827
672.371600 -0.007871
672.602800 0.011658
672.834000 0.013573
673.065200 0.005965
673.296400 -0.015267
673.527700 0.008835
673.758900 0.015514
673.990200 0.010671
674.221400 0.020495
674.452700 -0.013460
674.684000 0.006631
674.915300 0.029742
675.146600 0.004248
675.377900 0.003410
675.609300 0.007297
675.840600 0.032666
676.071900 0.003488
676.303300 0.009879
676.534700 -0.010780
676.766100 0.021188
676.997400 0.028462
677.228800 -0.004800
677.460200 0.007991
677.691700 0.014884
677.923100 0.026800
678.154500 -0.011995
678.386000 0.000755
678.617400 0.015266
678.848900 0.002169
679.080400 -0.006871
679.311900 0.022863
679.543400 0.001679
679.774900 0.011034
680.006400 0.008123
680.237900 0.016938
680.469400 0.016127
680.701000 0.031520
680.932500 0.019745
681.164100 0.008138
681.395700 0.011070
681.627300 0.009828
681.858900 -0.004972
682.090500 0.008252
682.322100 -0.006337
682.553700 -0.003723
682.785400 -0.002182
683.017000 0.030376
683.248700 0.002602
683.480300 0.003437
683.712000 -0.018645
683.943700 0.012935
684.175400 -0.006917
684.407100 0.014186
684.638800 -0.007429
684.870500 0.027899
685.102300 0.023469
685.334000 0.006923
685.565800 0.018784
685.797500 0.011718
686.029300 0.000651
686.261100 0.031692
686.492900 0.002013
686.724700 0.000635
686.956500 -0.009664
687.188300 0.014811
687.420200 0.017613
687.652000 0.014807
687.883800 0.005570
688.115700 0.006691
688.347600 0.018512
688.579500 -0.007365
688.811400 0.008020
689.043300 0.020803
689.275200 0.010193
689.507100 -0.000311
689.739000 -0.015590
689.971000 -0.012836
690.202900 0.003717
690.434900 0.014053
690.666900 -0.002871
690.898800 0.021698
691.130800 0.018535
691.362800 0.013583
691.594800 0.002561
691.826900 0.002128
692.058900 0.006190
692.290900 0.016346
692.523000 0.016478
692.755000 0.012602
692.987100 0.016102
693.219200 0.006027
693.451300 0.019785
693.683400 0.024044
693.915500 0.006815
694.147600 0.001367
694.379700 0.021836
694.611900 0.016582
694.844000 0.021387
695.076200 -0.025265
695.308300 0.034549
695.540500 0.017698
695.772700 -0.011198
696.004900 0.031663
696.237100 0.024684
696.469300 0.001074
696.701600 0.023336
696.933800 0.014109
697.166000 -0.002174
697.398300 0.028139
697.630600 0.027896
697.862800 0.024145
698.095100 0.045493
698.327400 0.009510
698.559700 0.012371
698.792000 -0.013805
699.024300 0.013014
699.256700 0.008295
699.489000 -0.009181
699.721400 0.022905
699.953700 0.006961
700.186100 0.006508
700.418500 -0.008930
700.650900 0.008217
700.883300 0.015013
701.115700 0.022487
701.348100 -0.008889
701.580600 0.025246
701.813000 0.027579
702.045400 0.017639
702.277900 0.005514
702.510400 0.008270
702.742900 -0.005490
702.975300 0.031410
703.207800 0.015904
703.440300 0.030228
703.672900 0.038554
703.905400 -0.012453
704.137900 0.006122
704.370500 -0.006243
704.603000 0.009245
704.835600 -0.004471
705.068200 -0.019049
705.300800 0.020583
705.533400 0.021307
705.766000 -0.014494
705.998600 0.015899
706.231200 -0.002360
706.463800 0.030266
706.696500 0.025633
706.929100 -0.011490
707.161800 -0.023434
707.394500 0.028634
707.627200 0.003022
707.859900 0.021133
708.092600 0.012792
708.325300 0.013554
708.558000 0.010006
708.790700 0.005224
709.023500 0.042995
709.256200 0.005569
709.489000 -0.003947
709.721700 -0.010716
709.954500 0.012641
710.187300 -0.004582
710.420100 0.023873
710.652900 -0.002432
710.885700 -0.023736
711.118600 -0.009570
711.351400 -0.023483
711.584200 -0.001567
711.817100 -0.000700
712.050000 -0.000045
712.282800 0.006458
712.515700 0.002653
712.748600 0.011143
712.981500 -0.010068
713.214400 0.021109
713.447400 -0.003604
713.680300 0.005993
713.913200 0.008759
714.146200 -0.005975
714.379100 -0.021385
714.612100 0.003928
714.845100 0.002357
715.078100 0.006139
715.311100 -0.018085
715.544100 0.018346
715.777100 0.004358
716.010200 0.000580
716.243200 -0.015164
716.476200 0.009514
716.709300 0.014933
716.942400 0.022837
717.175400 0.002707
717.408500 0.013009
717.641600 0.004231
717.874700 -0.005426
718.107800 0.009355
718.341000 0.013928
718.574100 -0.004367
718.807200 0.026024
719.040400 0.023632
719.273600 -0.008823
719.506700 0.026465
719.739900 -0.001495
719.973100 0.006105
720.206300 -0.001420
720.439500 0.019015
720.672700 -0.009279
720.906000 0.012500
721.139200 -0.001319
721.372500 0.028737
721.605700 0.005583
721.839000 0.029701
722.072300 0.004334
722.305500 -0.015597
722.538800 0.002966
722.772100 -0.004984
723.005500 -0.014649
723.238800 0.011290
723.472100 -0.001950
723.705500 0.007745
723.938800 0.000262
724.172200 -0.004967
724.405600 0.003688
724.638900 0.041156
724.872300 -0.003489
725.105700 0.010375
725.339100 0.019803
725.572600 0.012421
725.806000 -0.010063
726.039400 -0.005572
726.272900 0.006429
726.506300 0.011617
726.739800 0.017511
726.973300 0.008708
727.206800 0.008848
727.440300 0.028341
727.673800 -0.000053
727.907300 0.025598
728.140800 0.019274
728.374300 0.000165
728.607900 0.020918
728.841400 0.005803
729.075000 0.007115
729.308600 -0.001867
729.542100 0.005221
729.775700 0.009600
730.009300 0.000404
730.242900 0.002122
730.476600 0.035182
730.710200 0.011344
730.943800 0.023377
731.177500 0.029489
731.411100 0.008872
731.644800 0.018542
731.878500 0.015887
732.112200 0.016893
732.345800 0.003660
732.579500 0.015084
732.813300 0.008939
733.047000 0.018861
733.280700 0.024935
733.514500 0.004944
733.748200 0.017613
733.982000 0.009592
734.215700 0.008048
734.449500 0.015455
734.683300 0.027775
734.917100 0.007834
735.150900 0.005794
735.384700 0.024243
735.618500 0.010668
735.852400 0.015078
736.086200 0.017010
736.320100 -0.001966
736.553900 0.021600
736.787800 0.010106
737.021700 0.010959
737.255600 0.015160
737.489500 0.002210
737.723400 -0.011353
737.957300 -0.001558
738.191200 -0.010745
738.425200 0.001771
738.659100 0.007770
738.893100 -0.008695
739.127100 0.008748
739.361000 0.012788
739.595000 0.030657
739.829000 -0.006275
740.063000 -0.008874
740.297000 0.021014
740.531000 0.004395
740.765100 0.004371
740.999100 0.010453
741.233200 0.013901
741.467200 0.017931
741.701300 0.005749
741.935400 0.010072
742.169500 -0.020555
742.403600 -0.005417
742.637700 -0.007164
742.871800 -0.010791
743.105900 -0.021160
743.340000 0.012709
743.574200 0.002802
743.808300 0.001145
744.042500 -0.014692
744.276700 -0.007304
744.510800 0.029061
744.745000 0.007993
744.979200 0.037178
745.213400 -0.006875
745.447700 0.003614
745.681900 0.000000
745.916100 0.033916
746.150400 0.014854
746.384600 0.016302
746.618900 -0.025964
746.853200 0.010794
747.087400 -0.004474
747.321700 0.014808
747.556000 -0.003416
747.790300 0.016580
748.024700 -0.001932
748.259000 0.000585
748.493300 0.003223
748.727700 0.005717
748.962000 0.012795
749.196400 0.001460
749.430800 0.028130
749.665200 -0.001883
749.899500 -0.008043
750.133900 -0.009938
750.368400 0.019322
750.602800 0.004997
750.837200 -0.008693
751.071700 0.012034
751.306100 0.014332
751.540600 -0.006448
751.775000 0.030876
752.009500 0.002050
752.244000 -0.001677
752.478500 0.004855
752.713000 0.031093
752.947500 -0.004607
753.182000 0.021435
753.416600 -0.005907
753.651100 0.004683
753.885600 0.020551
754.120200 0.012805
754.354800 0.002784
754.589400 0.012363
754.823900 0.003275
755.058500 0.017434
755.293100 0.012251
755.527800 0.004086
755.762400 0.010126
755.997000 0.008962
756.231700 0.023507
756.466300 0.001720
756.701000 0.009122
756.935600 0.007541
757.170300 0.000558
757.405000 0.025335
757.639700 0.005868
757.874400 0.022654
758.109100 0.018695
758.343800 0.013405
758.578600 0.017202
758.813300 0.002822
759.048100 0.007758
759.282800 0.013264
759.517600 0.017149
759.752400 0.015468
759.987200 0.011886
760.222000 0.007346
760.456800 0.005710
760.691600 0.031659
760.926400 0.014399
761.161300 0.014519
761.396100 0.004284
761.631000 0.018380
761.865800 0.036809
762.100700 0.028611
762.335600 0.017763
762.570500 0.001907
762.805400 -0.002842
763.040300 0.004625
763.275200 0.010566
763.510100 0.019092
763.745000 0.020736
763.980000 0.023753
764.214900 0.000974
764.449900 0.021784
764.684900 0.008220
764.919800 0.008863
765.154800 -0.003047
765.389800 0.015651
765.624800 0.027844
765.859900 -0.009450
766.094900 0.010644
766.329900 -0.001891
766.565000 0.020065
766.800000 0.001054
767.035100 0.011709
767.270100 0.005341
767.505200 0.005204
767.740300 0.006458
767.975400 0.001055
768.210500 0.010601
768.445600 0.010904
768.680800 -0.000636
768.915900 0.029291
769.151000 0.008364
769.386200 0.010467
769.621400 0.001890
769.856500 0.016883
770.091700 0.022802
770.326900 -0.005979
770.562100 0.001288
770.797300 0.000520
771.032500 -0.002606
771.267700 -0.001760
771.503000 0.002819
771.738200 0.030650
771.973500 -0.005010
772.208700 -0.002236
772.444000 0.020601
772.679300 0.005333
772.914600 0.005671
773.149900 0.005071
773.385200 0.003074
773.620500 0.012155
773.855800 0.012191
774.091100 0.006437
774.326500 0.015571
774.561800 -0.011278
774.797200 0.032602
775.032600 0.023203
775.267900 -0.017594
775.503300 0.001120
775.738700 0.000632
775.974100 0.009538
776.209500 0.015737
776.445000 0.032130
776.680400 0.012117
776.915800 0.023890
777.151300 -0.005348
777.386800 0.010540
777.622200 0.007005
777.857700 -0.007335
778.093200 0.031324
778.328700 -0.013268
778.564200 -0.004095
778.799700 0.006386
779.035200 0.008487
779.270700 -0.007231
779.506300 -0.005755
779.741800 -0.007474
779.977400 -0.011193
780.213000 0.014060
780.448500 0.010740
780.684100 0.007214
780.919700 0.014140
781.155300 -0.011224
781.390900 0.015095
781.626500 -0.024545
781.862200 0.008736
782.097800 0.024039
782.333500 0.003218
782.569100 0.005671
782.804800 -0.005251
783.040500 0.016482
783.276100 -0.006628
783.511800 -0.001594
783.747500 0.011656
783.983200 -0.005133
784.219000 0.015517
784.454700 0.002511
784.690400 0.028636
784.926200 0.028982
785.161900 0.029602
785.397700 0.007116
785.633500 -0.021184
785.869200 0.003895
786.105000 0.006237
786.340800 0.005684
786.576600 0.010481
786.812400 0.017296
787.048300 0.005869
787.284100 0.022916
787.519900 -0.000825
787.755800 0.022268
787.991700 -0.002238
788.227500 0.008892
788.463400 -0.000312
788.699300 0.012709
788.935200 0.019009
789.171100 0.001118
789.407000 -0.011368
789.642900 0.012801
789.878900 0.008946
790.114800 0.022848
790.350700 -0.013045
790.586700 0.011505
790.822700 0.028618
791.058600 -0.019486
791.294600 0.016147
791.530600 -0.000811
791.766600 0.027901
792.002600 0.014323
792.238700 0.007700
792.474700 0.020511
792.710700 0.014081
792.946800 -0.029350
793.182800 0.021788
793.418900 0.020762
793.655000 0.018309
793.891000 0.031359
794.127100 0.050145
794.363200 0.030352
794.599300 0.009611
794.835500 0.010839
795.071600 0.022821
795.307700 0.027235
795.543900 0.002386
795.780000 -0.007227
796.016200 0.024249
796.252300 0.026281
796.488500 0.045042
796.724700 0.030370
796.960900 0.042449
797.197100 0.002845
797.433300 -0.000590
797.669500 0.020835
797.905800 -0.010448
798.142000 0.007332
798.378300 0.001739
798.614500 0.001442
798.850800 0.020800
799.087100 0.004451
799.323300 0.014489
799.559600 -0.019579
799.795900 0.029963
800.032200 0.025215
800.268600 0.002200
800.504900 0.032904
800.741200 0.017756
800.977600 0.011267
801.213900 0.015093
801.450300 0.052780
801.686700 -0.003014
801.923000 0.036819
802.159400 0.006184
802.395800 -0.014526
802.632200 0.024086
802.868600 -0.031261
803.105100 0.058853
803.341500 -0.024922
803.577900 0.034505
803.814400 0.039142
804.050800 0.012575
804.287300 0.007890
804.523800 0.031459
804.760300 0.027308
804.996800 -0.014261
805.233300 0.028118
805.469800 0.016033
805.706300 0.014913
805.942800 0.017883
806.179400 -0.016097
806.415900 0.010802
806.652500 0.014196
806.889000 0.047233
807.125600 0.009101
807.362200 -0.020027
807.598800 0.012574
807.835400 0.019187
808.072000 0.010469
808.308600 0.018124
808.545200 -0.004361
808.781800 -0.009934
809.018500 0.023394
809.255100 -0.009063
809.491800 0.006165
809.728400 -0.006701
809.965100 -0.003769
810.201800 0.027010
810.438500 -0.039568
810.675200 -0.004838
810.911900 0.019090
811.148600 0.006867
811.385300 0.024364
811.622100 -0.004241
811.858800 0.017307
812.095600 -0.009853
812.332300 0.040464
812.569100 -0.021531
812.805900 0.048601
813.042700 -0.024522
813.279500 0.028889
813.516300 -0.036111
813.753100 0.024104
813.989900 0.034748
814.226700 0.038321
814.463600 0.009423
814.700400 0.006480
814.937300 -0.013990
815.174200 0.015351
815.411000 -0.005860
815.647900 -0.057356
815.884800 -0.054979
816.121700 0.017847
816.358600 0.016729
816.595500 0.007700
816.832400 -0.001680
817.069400 0.051780
817.306300 0.014919
817.543300 -0.011795
817.780200 -0.021246
818.017200 0.056928
818.254200 0.012319
818.491200 -0.001401
818.728200 0.032111
818.965200 0.003705
819.202200 0.013159
819.439200 0.023717
819.676200 -0.031435
819.913300 -0.023522
820.150300 -0.003960
820.387400 0.035718
820.624400 0.073373
820.861500 0.014133
821.098600 0.011728
821.335700 0.062742
821.572700 0.029584
821.809900 -0.020817
822.047000 0.047196
822.284100 -0.020407
822.521200 0.046054
822.758400 0.018413
822.995500 0.050479
823.232700 0.045978
823.469800 0.045750
823.707000 -0.026452
823.944200 0.016481
824.181400 0.075609
824.418600 -0.010720
824.655800 -0.017593
824.893000 -0.014562
825.130200 -0.003216
825.367500 -0.018105
825.604700 0.018814
825.841900 -0.024565
826.079200 0.025232
826.316500 0.037290
826.553700 0.020829
826.791000 0.037910
827.028300 0.029356
827.265600 -0.000604
827.502900 0.033452
827.740200 0.045681
827.977600 -0.019944
828.214900 0.024150
828.452200 0.030650
828.689600 0.022391
828.927000 0.040996
829.164300 -0.021649
829.401700 -0.011075
829.639100 0.018670
829.876500 -0.033881
830.113900 0.049038
830.351300 0.016965
830.588700 0.021429
830.826100 0.033429
831.063600 -0.046980
831.301000 0.023333
831.538500 -0.022602
831.775900 0.013563
832.013400 0.034340
832.250900 0.012698
832.488400 0.088351
832.725900 0.025220
832.963400 0.047042
833.200900 -0.004253
833.438400 0.012595
833.675900 0.095557
833.913500 0.090789
834.151000 0.028434
834.388600 0.047765
834.626100 -0.005346
834.863700 0.042226
835.101300 0.017596
835.338900 0.051623
835.576500 0.009059
835.814100 0.004501
836.051700 -0.024183
836.289300 0.072671
836.526900 -0.027706
836.764600 0.032325
837.002200 0.085270
837.239900 0.022251
837.477500 0.003423
837.715200 -0.091358
837.952900 0.027474
838.190600 0.047292
838.428300 -0.002779
838.666000 0.075397
838.903700 0.011231
839.141400 0.036177
839.379100 0.023050
839.616900 0.061943
839.854600 -0.005099
840.092400 -0.020444
840.330200 0.041525
840.567900 0.030558
840.805700 0.009825
841.043500 -0.012052
841.281300 -0.017217
841.519100 0.060801
841.756900 -0.035209
841.994700 -0.060276
842.232600 0.063021
842.470400 0.069726
842.708200 -0.057858
842.946100 -0.037139
843.184000 -0.036087
843.421800 0.016149
843.659700 0.047714
843.897600 -0.063612
844.135500 0.026541
844.373400 0.013163
844.611300 0.061001
844.849200 0.124576
845.087200 0.027862
845.325100 -0.017296
845.563100 0.032322
845.801000 0.032519
846.039000 0.047846
846.277000 -0.075841
846.514900 -0.024061
846.752900 -0.123085
846.990900 -0.062853
847.228900 -0.079217
847.466900 0.103622
847.705000 -0.010830
847.943000 -0.043274
848.181000 -0.039144
848.419100 0.028652
848.657100 0.149869
848.895200 -0.006334
849.133300 0.048259
849.371300 0.003690
849.609400 -0.006660
849.847500 -0.024858
850.085600 -0.027769
850.323700 0.113900
850.561900 -0.021397
850.800000 0.020854
851.038100 0.018514
851.276300 -0.056868
851.514400 -0.033524
851.752600 0.064522
851.990800 -0.079253
852.228900 0.001651
852.467100 -0.014894
852.705300 -0.011619
852.943500 0.015744
853.181700 0.022308
853.420000 -0.049405
853.658200 -0.034984
853.896400 0.014354
854.134700 0.019663
854.372900 0.004185
854.611200 0.014415
854.849500 0.038388
855.087700 0.002656
855.326000 0.069173
855.564300 -0.010354
855.802600 0.076237
856.040900 0.030321
856.279200 0.036188
856.517600 0.018211
856.755900 -0.022881
856.994200 -0.034552
857.232600 0.016143
857.471000 -0.011392
857.709300 0.012250
857.947700 0.015537
858.186100 0.045265
858.424500 -0.007799
858.662900 0.007732
858.901300 -0.008862
859.139700 0.021899
859.378100 -0.024653
859.616600 0.005066
859.855000 -0.013566
860.093500 0.008285
860.331900 0.044595
860.570400 0.061887
860.808900 0.036423
861.047300 0.066268
861.285800 0.032569
861.524300 0.138707
861.762800 0.016567
862.001300 0.021037
862.239900 0.087839
862.478400 -0.048720
862.716900 -0.001114
862.955500 0.050155
863.194000 -0.017003
863.432600 0.021487
863.671200 -0.016543
863.909800 0.007340
864.148300 -0.040691
864.386900 -0.022907
864.625500 0.099385
864.864200 -0.031621
865.102800 -0.069980
865.341400 -0.016491
865.580000 -0.046016
865.818700 0.059871
866.057300 0.070504
866.296000 0.024784
866.534700 0.009498
866.773300 0.074963
867.012000 0.050328
867.250700 0.035271
867.489400 -0.069071
867.728100 -0.055062
867.966900 0.062520
868.205600 -0.005141
868.444300 0.055289
868.683100 -0.031116
868.921800 -0.001672
869.160600 0.007947
869.399300 -0.054404
869.638100 0.051359
869.876900 -0.060671
870.115700 0.066106
870.354500 0.018520
870.593300 -0.030288
870.832100 -0.020450
871.070900 0.025285
871.309700 0.020580
871.548600 0.130533
871.787400 -0.009426
872.026300 -0.142945
872.265100 -0.032362
872.504000 0.022610
872.742900 0.052690
872.981800 -0.023793
873.220700 -0.017919
873.459600 0.139363
873.698500 0.005237
873.937400 0.114542
874.176300 -0.012970
874.415300 0.010132
874.654200 0.047162
874.893200 0.062578
875.132100 -0.067780
875.371100 0.006217
875.610100 0.125724
875.849100 0.040344
876.088000 0.011186
876.327000 0.124754
876.566100 0.052214
876.805100 0.021958
877.044100 0.015096
877.283100 -0.075235
877.522200 -0.121747
877.761200 -0.051710
878.000300 0.032723
878.239300 0.033942
878.478400 0.028999
878.717500 0.064927
878.956600 0.051261
879.195700 0.071126
879.434800 -0.075944
879.673900 -0.014201
879.913000 -0.019382
880.152100 0.023615
880.391300 0.025988
880.630400 0.020358
880.869600 0.020216
881.108700 -0.012083
881.347900 0.037342
881.587100 0.035868
881.826200 0.061922
882.065400 0.040805
882.304600 -0.021735
882.543800 0.031259
882.783100 0.072913
883.022300 -0.060835
883.261500 0.031223
883.500700 -0.043699
883.740000 -0.018746
883.979200 0.032085
884.218500 -0.018103
884.457800 -0.050179
884.697100 -0.007728
884.936300 -0.023595
885.175600 -0.004428
885.414900 0.020087
885.654200 0.001623
885.893600 -0.029160
886.132900 0.059704
886.372200 0.005758
886.611600 -0.025984
886.850900 0.079492
887.090300 0.018492
887.329600 0.011447
887.569000 -0.017735
887.808400 0.003153
888.047800 -0.093687
888.287200 -0.060812
888.526600 -0.079648
888.766000 -0.020085
889.005400 0.075949
889.244800 -0.010801
889.484300 -0.092206
889.723700 0.031960
889.963200 -0.041617
890.202600 0.015788
890.442100 -0.013455
890.681600 -0.044760
890.921100 0.052995
891.160600 0.015930
891.400100 -0.008996
891.639600 0.115649
891.879100 0.002118
892.118600 0.049661
892.358100 -0.058805
892.597700 0.069381
892.837200 0.082163
893.076800 0.008972
893.316300 -0.063565
893.555900 0.051516
893.795500 0.100147
894.035100 0.016863
894.274700 0.042264
894.514300 0.002583
894.753900 -0.004971
894.993500 0.075610
895.233100 -0.111996
895.472700 0.061872
895.712400 0.107506
895.952000 0.063212
896.191700 -0.113756
896.431400 0.031316
896.671000 0.056769
896.910700 0.096494
897.150400 -0.076020
897.390100 -0.055329
897.629800 0.041648
897.869500 0.017737
898.109200 0.085004
898.348900 0.032672
898.588700 0.017750
898.828400 0.059231
899.068200 0.071185
899.307900 -0.028076
899.547700 0.046324
899.787500 0.032808
900.027200 -0.152513
900.267000 0.044888
900.506800 0.101679
900.746600 0.038915
900.986400 -0.015690
901.226300 0.029819
901.466100 -0.010131
901.705900 0.102988
901.945800 0.015075
902.185600 0.028854
902.425500 0.017954
902.665400 -0.009407
902.905200 0.049797
903.145100 -0.055273
903.385000 -0.057962
903.624900 0.051601
903.864800 -0.044153
904.104700 0.006528
904.344600 0.047354
904.584600 -0.106433
904.824500 0.026790
905.064400 -0.004519
905.304400 0.094459
905.544400 -0.036631
905.784300 0.111718
906.024300 -0.059817
906.264300 0.018519
906.504300 0.046100
906.744300 -0.015864
906.984300 -0.036911
907.224300 0.036057
907.464300 0.088919
907.704300 0.003581
907.944400 -0.068568
908.184400 -0.024968
908.424500 -0.021616
908.664500 -0.083883
908.904600 -0.000231
909.144700 -0.036311
909.384700 0.066213
909.624800 -0.080252
909.864900 -0.000634
910.105000 0.029938
910.345200 -0.257012
910.585300 0.035120
910.825400 0.079518
911.065500 0.151471
911.305700 0.078880
911.545800 0.016715
911.786000 -0.018331
912.026200 0.003871
912.266300 0.072493
912.506500 0.081865
912.746700 0.048975
912.986900 0.039615
913.227100 -0.060063
913.467300 0.137263
913.707500 -0.128674
913.947800 0.081036
914.188000 0.128749
914.428300 -0.039006
914.668500 0.076119
914.908800 -0.034181
915.149000 0.082225
915.389300 0.091555
915.629600 0.199807
915.869900 0.005335
916.110200 -0.114142
916.350500 -0.020617
916.590800 0.029191
916.831100 0.099882
917.071400 -0.005804
917.311800 -0.029734
917.552100 0.003830
917.792500 -0.122514
918.032800 0.005585
918.273200 0.064054
918.513600 0.083771
918.753900 0.034162
918.994300 0.073415
919.234700 0.134493
919.475100 0.007045
919.715500 0.097807
919.956000 0.090019
920.196400 -0.020987
920.436800 -0.109664
920.677300 -0.080708
920.917700 0.020033
921.158200 0.008914
921.398600 0.029178
921.639100 0.254405
921.879600 -0.180476
922.120100 0.124751
922.360600 0.050238
922.601100 0.086248
922.841600 -0.019028
923.082100 -0.118462
923.322600 0.038605
923.563100 -0.103127
923.803700 0.078888
924.044200 0.008963
924.284800 0.088000
924.525400 0.045002
924.765900 0.091907
925.006500 -0.034017
925.247100 0.010044
925.487700 0.043490
925.728300 0.204792
925.968900 0.004898
926.209500 -0.032486
926.450100 -0.124893
926.690800 0.075011
926.931400 -0.077360
927.172000 0.054337
927.412700 -0.028078
927.653300 0.132477
927.894000 0.030400
928.134700 0.090442
928.375400 -0.116309
928.616100 0.141150
928.856800 0.055810
929.097500 0.006276
929.338200 -0.102952
929.578900 0.172360
929.819600 0.033398
930.060400 -0.061159
930.301100 -0.087764
930.541900 -0.160373
930.782600 0.011034
931.023400 -0.065271
931.264200 0.242285
931.504900 0.175252
931.745700 -0.018052
931.986500 0.023168
932.227300 0.041144
932.468100 0.034674
932.708900 0.183019
932.949800 0.127930
933.190600 0.213912
933.431400 -0.162911
933.672300 -0.026608
933.913100 -0.054766
934.154000 0.050702
934.394900 -0.045549
934.635800 -0.110301
934.876600 0.046028
935.117500 0.223985
935.358400 0.084658
935.599300 0.132436
935.840300 0.192113
936.081200 0.091441
936.322100 -0.197572
936.563000 0.109283
936.804000 0.021033
937.044900 -0.236212
937.285900 0.086541
937.526900 0.163359
937.767800 0.167091
938.008800 -0.125958
938.249800 0.219734
938.490800 0.035500
938.731800 0.302505
938.972800 0.281074
939.213800 -0.015652
939.454900 0.110209
939.695900 -0.093987
939.936900 -0.079308
940.178000 0.022478
940.419000 -0.024255
940.660100 0.578306
940.901200 -0.008055
941.142200 -0.312012
941.383300 0.460506
941.624400 0.350199
941.865500 0.255205
942.106600 0.019782
942.347700 -0.142486
942.588900 0.258976
942.830000 -0.125946
943.071100 0.182171
943.312300 0.380828
943.553400 0.023481
943.794600 0.057252
944.035700 0.084141
944.276900 0.110246
944.518100 0.011564
944.759300 0.288864
945.000500 -0.117113
945.241700 0.094424
945.482900 0.335252
945.724100 0.277003
945.965300 0.064596
946.206600 -0.137841
946.447800 -0.102208
946.689100 0.196188
946.930300 -0.595049
947.171600 0.209335
947.412800 0.180651
947.654100 0.370935
947.895400 0.285319
948.136700 -0.080907
948.378000 1.096367
948.619300 0.200633
948.860600 0.169772
949.101900 0.013527
949.343300 0.200168
949.584600 0.128616
949.825900 0.317368
950.067300 0.399092
950.308600 0.276053
950.550000 0.265649
950.791400 -0.370509
951.032700 -0.251113
951.274100 -0.183232
951.515500 0.027713
951.756900 -0.143385
951.998300 -0.123454
952.239800 0.891612
952.481200 -0.085862
952.722600 -0.174558
952.964000 0.084771
953.205500 -0.120307
953.446900 -0.154136
953.688400 -0.013090
953.929900 0.115774
954.171300 -1.252812
954.412800 -0.010510
954.654300 0.400916
954.895800 -0.104102
955.137300 -0.250505
955.378800 -0.119280
955.620300 0.242350
955.861800 0.271714
956.103400 0.288979
956.344900 0.094338
956.586500 0.425386
956.828000 0.059753
957.069600 -0.195380
957.311100 -0.118626
957.552700 0.612448
957.794300 -0.000347
958.035900 -0.079495
958.277500 -0.219382
958.519100 0.099273
958.760700 0.142219
959.002300 -0.305061
959.243900 -0.065036
959.485600 -0.001046
959.727200 -0.054086
959.968800 -0.184222
960.210500 -0.210780
960.452200 -0.002500
960.693800 -0.227360
960.935500 -2.716838
961.177200 -0.036173
961.418900 0.236572
961.660600 0.055356
961.902300 0.555548
962.144000 -0.174552
962.385700 0.318934
962.627400 0.163940
962.869200 0.392995
963.110900 -0.031138
963.352700 2.840106
963.594400 0.367800
963.836200 -0.103211
964.077900 0.100388
964.319700 0.549221
964.561500 0.204023
964.803300 0.198235
965.045100 -0.163955
965.286900 -0.055882
965.528700 -0.062393
965.770500 0.019580
966.012300 -0.229916
966.254200 0.080728
966.496000 -0.382794
966.737900 0.313619
966.979700 -0.098354
967.221600 -0.027152
967.463400 0.140272
967.705300 0.270904
967.947200 -0.001198
968.189100 -0.337028
968.431000 0.183442
968.672900 -0.035334
968.914800 0.085712
969.156700 -0.263951
969.398700 -0.468025
969.640600 -0.635872
969.882500 0.027566
970.124500 2.575188
970.366400 -0.032280
970.608400 0.112529
970.850400 -0.467708
971.092300 -0.309060
971.334300 0.093262
971.576300 -0.547648
971.818300 0.241815
972.060300 0.178162
972.302300 0.260141
972.544300 0.989200
972.786400 0.528587
973.028400 0.060388
973.270400 0.177442
973.512500 0.664125
973.754500 0.108094
973.996600 0.121436
974.238700 0.312986
974.480700 0.297396
974.722800 0.315309
974.964900 -0.084744
975.207000 0.230846
975.449100 -0.041755
975.691200 0.190156
975.933300 2.853698
976.175500 -3.065206
976.417600 0.010550
976.659700 0.108274
976.901900 0.249281
977.144000 -0.072958
977.386200 -0.416293
977.628300 0.105770
977.870500 0.184524
978.112700 -0.374055
978.354900 0.229432
978.597100 -0.191722
978.839300 0.595103
979.081500 0.032133
979.323700 -2.987666
979.565900 -0.333248
979.808200 3.265290
980.050400 0.208474
980.292600 0.268237
980.534900 0.272475
980.777100 0.498519
981.019400 0.023652
981.261700 0.084184
981.504000 0.138035
981.746200 -0.905410
981.988500 0.338398
982.230800 0.334209
982.473100 0.138338
982.715500 0.477647
982.957800 -0.016901
983.200100 0.341979
983.442400 -0.330354
983.684800 0.112704
983.927100 0.128493
984.169500 -0.259839
984.411800 0.045818
984.654200 -0.087150
984.896600 0.371822
985.139000 -1.557012
985.381400 0.316948
985.623800 0.687810
985.866200 -0.015136
986.108600 -2.761928
986.351000 0.825087
986.593400 2.820201
986.835800 0.170963
987.078300 0.629067
987.320700 0.449155
987.563200 1.067235
987.805600 -0.225508
988.048100 0.502573
988.290600 -0.467207
988.533100 -2.723456
988.775600 0.552323
989.018000 3.115278
989.260500 0.204975
989.503100 -2.756636
989.745600 -0.792076
989.988100 -2.900913
990.230600 -0.053152
990.473200 1.759416
990.715700 0.401554
990.958200 2.523746
991.200800 -0.163410
991.443400 -2.193125
991.685900 -0.257898
991.928500 0.000000
992.171100 -0.502503
992.413700 0.224893
992.656300 0.399740
992.898900 0.486076
993.141500 0.971247
993.384100 0.511058
993.626700 0.132351
993.869400 0.212648
994.112000 0.106342
994.354700 0.403316
994.597300 0.433598
994.840000 -2.404834
995.082600 -0.059069
995.325300 -0.800525
995.568000 0.172988
995.810700 -0.716128
996.053400 -0.193276
996.296100 0.675081
996.538800 0.061604
996.781500 0.403985
997.024200 -0.874026
997.267000 0.179967
997.509700 0.183644
997.752400 -0.186568
997.995200 1.708730
998.237900 0.239170
998.480700 0.009036
998.723500 -2.792392
998.966200 -0.126976
999.209000 -2.660865
999.451800 0.087964
999.694600 0.968811
999.937400 0.235278
1000.180200 0.226648
1000.423000 0.600344
1000.665900 -0.273895
1000.908700 2.396199
1001.151500 -0.237660
1001.394400 -0.032352
1001.637200 0.013251
1001.880100 -0.920819
1002.123000 -0.180669
1002.365800 -0.365319
1002.608700 -0.462923
1002.851600 0.272802
1003.094500 0.238787
1003.337400 2.217484
1003.580300 -3.100371
1003.823200 -0.441151
1004.066100 0.319620
1004.309100 -0.106095
1004.552000 0.412003
1004.794900 2.847573
1005.037900 0.424360
1005.280800 0.152003
1005.523800 0.386287
1005.766700 1.084934
1006.009700 0.000780
1006.252700 -2.654177
1006.495700 -0.141811
1006.738700 0.000000
1006.981700 0.209229
1007.224700 -0.181208
1007.467700 -0.935883
1007.710700 -0.386289
1007.953800 0.358668
1008.196800 2.736397
1008.439800 0.496376
1008.682900 0.095368
1008.925900 3.097604
1009.169000 2.884229
1009.412100 -3.150756
1009.655100 -1.152768
1009.898200 0.414500
1010.141300 -0.266868
1010.384400 0.618386
1010.627500 2.550228
1010.870600 -0.024527
1011.113700 0.530057
1011.356800 -0.000657
1011.600000 -0.837070
1011.843100 2.872156
1012.086300 -2.811575
1012.329400 -0.202505
1012.572600 -2.996949
1012.815700 -0.321266
1013.058900 -3.043362
1013.302100 -0.214644
1013.545200 0.556112
1013.788400 0.108661
1014.031600 -2.811575
1014.274800 0.268324
1014.518000 0.364699
1014.761300 0.254292
1015.004500 0.000000
1015.247700 -0.113713
1015.490900 -3.040602
1015.734200 0.943135
1015.977400 2.450249
1016.220700 -2.915927
1016.464000 2.853090
1016.707200 -0.625910
1016.950500 2.378398
1017.193800 0.156669
1017.437100 2.562293
1017.680400 0.084513
1017.923700 -0.075647
1018.167000 0.675422
1018.410300 0.122315
1018.653600 -0.095212
1018.896900 0.309795
1019.140300 0.204769
1019.383600 0.073926
1019.627000 0.153584
1019.870300 -0.258073
1020.113700 0.496918
1020.357100 0.579553
1020.600400 0.113336
1020.843800 3.090258
1021.087200 3.287130
1021.330600 -2.881385
1021.574000 0.599485
1021.817400 -2.481443
1022.060800 -2.326336
1022.304200 0.000000
1022.547700 0.749715
1022.791100 2.432969
1023.034500 0.006055
