# Wavelength	Absorbance
197.780200 -0.046790
197.984200 2.907949
198.188200 0.043392
198.392200 0.146851
198.596300 0.523888
198.800300 0.224642
199.004400 -0.097643
199.208500 0.916897
199.412600 -0.327444
199.616800 0.031445
199.820900 -0.309863
200.025100 0.059062
200.229200 -0.496102
200.433400 3.008600
200.637600 -0.361456
200.841800 -0.102748
201.046100 0.094257
201.250300 0.328455
201.454600 0.435562
201.658900 1.636179
201.863100 0.394874
202.067400 -0.029863
202.271800 0.095512
202.476100 0.106241
202.680500 0.149762
202.884800 0.329180
203.089200 0.131538
203.293600 2.745075
203.498000 -0.019190
203.702400 -0.206366
203.906900 -1.026834
204.111300 -2.139879
204.315800 0.746083
204.520300 0.757606
204.724800 0.071837
204.929300 -0.241290
205.133800 1.361378
205.338400 0.363835
205.543000 0.160710
205.747500 -0.043767
205.952100 -0.266735
206.156700 0.004029
206.361400 -2.742725
206.566000 2.187521
206.770600 0.089022
206.975300 -0.172401
207.180000 -1.919078
207.384700 -0.388639
207.589400 -3.019532
207.794100 -0.530293
207.998900 0.135076
208.203600 0.426377
208.408400 0.233619
208.613200 1.301688
208.818000 -0.241648
209.022800 2.414973
209.227600 0.196952
209.432500 0.382904
209.637300 -0.353714
209.842200 0.006664
210.047100 0.263357
210.252000 -0.792640
210.456900 1.414262
210.661800 3.055378
210.866800 0.468341
211.071800 3.104487
211.276700 0.108608
211.481700 -0.091619
211.686700 2.632457
211.891800 -0.104324
212.096800 0.359910
212.301800 2.890421
212.506900 0.227060
212.712000 2.965672
212.917100 0.367805
213.122200 2.866287
213.327300 0.260897
213.532500 -2.487138
213.737600 0.035549
213.942800 -1.402875
214.148000 2.631444
214.353200 0.000000
214.558400 0.224580
214.763600 0.575094
214.968900 0.042220
215.174100 0.669918
215.379400 -3.111263
215.584700 2.846955
215.790000 -0.167326
215.995300 0.066618
216.200700 -0.122216
216.406000 -0.034008
216.611400 -0.398164
216.816800 0.740363
217.022200 0.068508
217.227600 0.353966
217.433000 0.030053
217.638400 0.118367
217.843900 0.203774
218.049400 -2.496930
218.254800 0.301953
218.460300 -0.055108
218.665900 0.216792
218.871400 2.155336
219.076900 -0.070736
219.282500 0.207363
219.488100 0.315686
219.693600 2.783904
219.899200 0.770711
220.104900 0.853981
220.310500 2.158362
220.516100 -2.629410
220.721800 2.872156
220.927500 0.142238
221.133200 0.181844
221.338900 2.902003
221.544600 -0.074731
221.750300 0.771935
221.956100 0.127094
222.161800 2.338456
222.367600 0.328953
222.573400 -0.034154
222.779200 -2.445604
222.985000 -1.255273
223.190900 0.041101
223.396700 2.621176
223.602600 -0.359654
223.808500 -0.283135
224.014400 -0.099578
224.220300 0.150177
224.426200 -0.257019
224.632200 0.104292
224.838100 0.503031
225.044100 -0.030735
225.250100 -0.224289
225.456100 0.229967
225.662100 0.358299
225.868100 -0.473868
226.074200 0.046997
226.280200 -2.714330
226.486300 0.042135
226.692400 0.000000
226.898500 0.016827
227.104600 -0.008730
227.310700 0.840093
227.516900 -0.119492
227.723000 -0.244549
227.929200 0.266978
228.135400 0.095268
228.341600 0.115709
228.547800 0.463788
228.754100 1.725138
228.960300 -0.456918
229.166600 -2.795185
229.372900 2.907949
229.579100 0.501203
229.785500 0.627338
229.991800 -1.739233
230.198100 0.122238
230.404500 -0.726408
230.610800 0.272302
230.817200 -2.515874
231.023600 0.090392
231.230000 0.411205
231.436400 0.494277
231.642900 -0.127216
231.849300 -0.122653
232.055800 -1.004658
232.262300 3.280123
232.468800 -0.600865
232.675300 -0.215938
232.881800 -0.194605
233.088400 0.507029
233.294900 -0.324833
233.501500 0.051970
233.708100 0.000000
233.914700 0.118786
234.121300 0.000000
234.327900 2.776701
234.534600 0.480748
234.741300 0.234877
234.947900 -0.170477
235.154600 3.406199
235.361300 0.011617
235.568000 0.252638
235.774800 0.569336
235.981500 0.580022
236.188300 0.000000
236.395100 -0.169227
236.601800 0.000000
236.808700 0.978675
237.015500 0.626967
237.222300 1.774517
237.429200 0.740245
237.636000 0.086320
237.842900 -0.757268
238.049800 0.222198
238.256700 0.397940
238.463600 0.164060
238.670600 0.156564
238.877500 0.090453
239.084500 -2.906335
239.291500 0.338725
239.498500 2.245513
239.705500 -0.296067
239.912500 1.845098
240.119500 -1.301915
240.326600 2.190332
240.533700 -2.870989
240.740700 0.347018
240.947800 0.080248
241.154900 0.941913
241.362100 0.047151
241.569200 0.298004
241.776400 0.003495
241.983500 2.783904
242.190700 0.271319
242.397900 0.000000
242.605100 -0.199374
242.812400 2.587711
243.019600 0.142958
243.226900 2.710117
243.434100 0.370458
243.641400 -0.117910
243.848700 0.405382
244.056000 -2.374748
244.263400 -0.286307
244.470700 0.445296
244.678100 0.720698
244.885400 0.429595
245.092800 -0.478023
245.300200 -0.218407
245.507600 0.090708
245.715100 0.088176
245.922500 -0.055583
246.130000 -1.117856
246.337500 0.008623
246.544900 -0.163707
246.752400 0.543974
246.960000 -0.015741
247.167500 0.223262
247.375000 0.000000
247.582600 0.341768
247.790200 1.845098
247.997800 0.042992
248.205400 0.178707
248.413000 -0.261438
248.620600 0.070485
248.828300 0.052466
249.035900 0.365958
249.243600 0.222783
249.451300 1.497066
249.659000 1.010724
249.866700 0.404027
250.074500 0.029613
250.282200 3.189490
250.490000 0.017281
250.697800 0.753534
250.905600 -0.757537
251.113400 -0.106699
251.321200 0.033966
251.529000 -0.542850
251.736900 0.271201
251.944700 3.186674
252.152600 0.414528
252.360500 2.710117
252.568400 0.617435
252.776300 0.159894
252.984300 -0.033504
253.192200 -0.003578
253.400200 0.028130
253.608200 -0.077724
253.816200 0.259967
254.024200 2.872739
254.232200 -0.256199
254.440200 -1.079181
254.648300 0.005201
254.856400 -0.093617
255.064400 -0.219222
255.272500 0.446326
255.480600 0.259110
255.688800 -2.910624
255.896900 -0.041319
256.105100 3.284882
256.313200 -0.308259
256.521400 0.392800
256.729600 -0.078430
256.937800 0.595093
257.146000 -0.151076
257.354300 -3.033826
257.562500 0.159188
257.770800 -2.651278
257.979100 0.245468
258.187400 -0.229924
258.395700 0.750347
258.604000 0.491803
258.812400 1.186684
259.020700 3.026125
259.229100 -0.033657
259.437500 0.279535
259.645900 0.943110
259.854300 0.478848
260.062700 0.266944
260.271100 -0.104735
260.479600 0.161594
260.688100 0.046419
260.896500 0.302975
261.105000 -0.699676
261.313500 0.114671
261.522100 3.142702
261.730600 0.047236
261.939200 -0.329436
262.147700 -0.029222
262.356300 0.333455
262.564900 -0.473742
262.773500 -0.010619
262.982200 0.433459
263.190800 -1.732394
263.399500 0.422209
263.608100 0.479111
263.816800 0.109316
264.025500 0.061746
264.234200 -0.499649
264.442900 -0.649352
264.651700 0.191269
264.860400 -0.273253
265.069200 0.068429
265.278000 0.430432
265.486800 0.022615
265.695600 2.450249
265.904400 0.453922
266.113300 0.154279
266.322100 -0.002993
266.531000 2.294466
266.739900 -0.564071
266.948800 0.366895
267.157700 -0.036891
267.366600 0.853981
267.575500 0.437613
267.784500 -0.094210
267.993500 -0.000439
268.202400 0.665460
268.411400 -0.089660
268.620500 2.761176
268.829500 0.233149
269.038500 -0.492098
269.247600 0.059287
269.456600 -0.173243
269.665700 -0.032587
269.874800 0.315235
270.083900 0.151469
270.293100 -2.534026
270.502200 -0.154300
270.711400 0.525045
270.920500 0.459036
271.129700 0.205830
271.338900 -0.044558
271.548100 2.691965
271.757300 3.030195
271.966600 0.232410
272.175800 0.600002
272.385100 0.626075
272.594400 1.452298
272.803700 0.134548
273.013000 -0.302407
273.222300 0.111664
273.431600 0.520806
273.641000 0.330687
273.850400 -0.148465
274.059700 0.117946
274.269100 0.199215
274.478500 0.208126
274.688000 0.141767
274.897400 0.056728
275.106900 -1.564878
275.316300 1.536864
275.525800 0.176091
275.735300 -3.022016
275.944800 0.227685
276.154300 -0.332438
276.363900 -0.166140
276.573400 0.040766
276.783000 0.176091
276.992600 0.269464
277.202200 0.601671
277.411800 2.587711
277.621400 -0.469187
277.831000 0.172143
278.040700 0.234537
278.250300 2.820201
278.460000 0.072780
278.669700 0.089478
278.879400 -0.689902
279.089100 -0.358415
279.298900 0.134745
279.508600 0.240386
279.718400 0.344374
279.928100 -2.559907
280.137900 0.149047
280.347700 0.023931
280.557600 -0.120761
280.767400 3.039017
280.977200 -0.097725
281.187100 -3.140822
281.397000 3.089905
281.606900 -2.374748
281.816800 0.157092
282.026700 0.052583
282.236600 0.350672
282.446600 2.924279
282.656500 -2.976350
282.866500 0.266646
283.076500 -0.659803
283.286500 0.256740
283.496500 0.087600
283.706500 0.652139
283.916600 0.118099
284.126600 -1.697727
284.336700 0.116108
284.546800 0.405867
284.756900 0.046167
284.967000 2.896526
285.177100 -0.106558
285.387300 -2.784617
285.597400 0.835190
285.807600 2.127105
286.017800 0.551521
286.228000 0.000000
286.438200 0.057825
286.648400 0.424643
286.858700 0.656764
287.068900 -0.122671
287.279200 0.163008
287.489500 -0.447754
287.699800 0.173090
287.910100 -0.049997
288.120400 -0.036944
288.330800 -0.394789
288.541100 3.352954
288.751500 -0.360008
288.961900 -0.122430
289.172300 -2.651278
289.382700 0.131817
289.593100 0.282856
289.803500 -3.149527
290.014000 0.568838
290.224500 0.254364
290.434900 -2.093422
290.645400 -0.258278
290.855900 -0.183744
291.066500 0.283401
291.277000 0.237788
291.487500 -0.063871
291.698100 0.368964
291.908700 -0.808911
292.119300 3.059185
292.329900 0.305776
292.540500 -0.238257
292.751100 -0.276065
292.961800 -2.690196
293.172400 0.321401
293.383100 -2.969882
293.593800 0.595083
293.804500 -0.038482
294.015200 0.161572
294.226000 0.000000
294.436700 -0.037616
294.647500 0.611015
294.858200 0.233457
295.069000 0.341049
295.279800 -0.150658
295.490600 0.000000
295.701500 0.112732
295.912300 0.557741
296.123200 1.127154
296.334000 0.096082
296.544900 0.747435
296.755800 0.302862
296.966700 -0.172775
297.177700 0.904568
297.388600 0.419129
297.599500 -0.747103
297.810500 0.244540
298.021500 0.147918
298.232500 0.046737
298.443500 -0.980977
298.654500 0.392919
298.865600 1.112969
299.076600 2.622214
299.287700 -2.789581
299.498800 0.322028
299.709900 0.317672
299.921000 0.320703
300.132100 0.295895
300.343200 0.188739
300.554400 0.381987
300.765500 0.310873
300.976700 -2.774517
301.187900 0.070661
301.399100 2.813581
301.610300 0.011103
301.821500 0.411462
302.032800 0.304458
302.244100 0.315020
302.455300 -0.121718
302.666600 0.204796
302.877900 0.115080
303.089200 -0.292373
303.300600 0.045430
303.511900 0.827797
303.723300 -0.159939
303.934600 0.147603
304.146000 -2.185906
304.357400 -0.533642
304.568800 -0.085518
304.780300 0.667244
304.991700 -0.024942
305.203100 -0.537718
305.414600 0.484052
305.626100 2.294466
305.837600 0.391564
306.049100 0.061645
306.260600 3.051153
306.472200 0.081160
306.683700 -0.172304
306.895300 -0.353720
307.106900 0.006932
307.318400 0.275717
307.530100 0.229234
307.741700 0.063455
307.953300 0.165806
308.165000 -2.906335
308.376600 0.131113
308.588300 0.117137
308.800000 0.054679
309.011700 0.524913
309.223400 0.227081
309.435100 -0.386708
309.646900 -0.126505
309.858600 0.643376
310.070400 0.136934
310.282200 -1.566101
310.494000 0.073081
310.705800 1.028324
310.917600 0.156295
311.129500 0.059789
311.341300 0.349994
311.553200 -0.004563
311.765100 -0.159167
311.977000 0.271713
312.188900 -0.107905
312.400800 0.245982
312.612700 -0.009591
312.824700 0.162345
313.036600 0.052434
313.248600 0.213770
313.460600 0.158206
313.672600 0.123405
313.884600 -0.247490
314.096700 -0.275178
314.308700 0.234913
314.520800 0.503856
314.732800 0.349699
314.944900 -0.144574
315.157000 0.070603
315.369200 -0.006767
315.581300 -0.091856
315.793400 -0.386202
316.005600 0.380624
316.217700 0.358643
316.429900 0.217678
316.642100 0.253860
316.854300 -0.189077
317.066600 0.276489
317.278800 0.303530
317.491100 0.433377
317.703300 0.186733
317.915600 0.185183
318.127900 0.228276
318.340200 0.023520
318.552500 0.173565
318.764900 0.002846
318.977200 0.122672
319.189600 -0.156762
319.401900 0.167491
319.614300 -0.032819
319.826700 -0.263013
320.039200 0.114362
320.251600 0.067631
320.464000 0.171907
320.676500 0.066633
320.889000 -0.765066
321.101400 0.107841
321.313900 0.102096
321.526500 0.166358
321.739000 0.174089
321.951500 0.323376
322.164100 -0.064149
322.376600 0.115465
322.589200 0.175903
322.801800 -0.004671
323.014400 -0.004329
323.227000 0.004435
323.439700 0.122513
323.652300 0.053986
323.865000 -0.052900
324.077700 0.056091
324.290400 -0.076943
324.503100 0.077116
324.715800 0.185371
324.928500 -0.044272
325.141200 0.039193
325.354000 0.056522
325.566800 -0.000884
325.779600 0.189764
325.992400 -0.197708
326.205200 0.087275
326.418000 0.013765
326.630800 0.237889
326.843700 0.507574
327.056600 0.021571
327.269400 -0.082164
327.482300 0.306939
327.695200 -0.042819
327.908200 0.031129
328.121100 0.003989
328.334000 0.106348
328.547000 0.252156
328.760000 -0.024414
328.973000 0.097684
329.186000 0.088059
329.399000 -0.015733
329.612000 0.194924
329.825100 0.015037
330.038100 0.035397
330.251200 0.145223
330.464300 0.076575
330.677400 0.119345
330.890500 0.170980
331.103600 0.038200
331.316700 0.079082
331.529900 0.116843
331.743100 0.009500
331.956200 0.109402
332.169400 0.034638
332.382600 0.048852
332.595900 0.162878
332.809100 -0.018070
333.022300 0.002875
333.235600 0.045421
333.448900 0.122735
333.662200 0.057443
333.875500 0.038351
334.088800 -0.146203
334.302100 0.150906
334.515400 0.016967
334.728800 -0.069008
334.942200 -0.042826
335.155500 -0.076911
335.368900 0.192317
335.582300 -0.053024
335.795800 0.034899
336.009200 0.051153
336.222700 -0.032559
336.436100 0.063445
336.649600 0.146907
336.863100 -0.036007
337.076600 0.152659
337.290100 0.022886
337.503600 0.005019
337.717200 0.075343
337.930700 0.034385
338.144300 0.115831
338.357900 -0.004291
338.571500 -0.077772
338.785100 0.046054
338.998700 0.027670
339.212400 0.101486
339.426000 -0.020732
339.639700 -0.058809
339.853300 0.014469
340.067000 0.053057
340.280700 -0.065059
340.494500 0.028748
340.708200 -0.004502
340.921900 0.067722
341.135700 -0.116329
341.349500 -0.006721
341.563300 -0.021357
341.777100 0.088039
341.990900 0.044627
342.204700 0.106942
342.418500 0.141447
342.632400 0.066509
342.846300 0.007166
343.060100 -0.101395
343.274000 0.019468
343.487900 0.089275
343.701900 0.017758
343.915800 0.072697
344.129700 0.087073
344.343700 -0.021748
344.557700 0.046848
344.771700 0.020184
344.985700 0.057592
345.199700 0.009708
345.413700 0.056678
345.627700 -0.028377
345.841800 -0.000176
346.055900 0.018560
346.269900 -0.027606
346.484000 0.059075
346.698100 -0.037518
346.912300 0.013889
347.126400 0.056838
347.340600 0.013124
347.554700 0.017509
347.768900 0.077908
347.983100 0.062790
348.197300 0.049202
348.411500 0.029980
348.625700 0.006063
348.840000 -0.015886
349.054200 0.096781
349.268500 0.072419
349.482800 0.029414
349.697100 0.021541
349.911400 0.018814
350.125700 -0.001279
350.340000 0.085267
350.554400 0.024489
350.768700 -0.015231
350.983100 -0.006200
351.197500 -0.024144
351.411900 0.074828
351.626300 0.060601
351.840700 0.014912
352.055200 -0.006754
352.269600 0.034726
352.484100 0.077298
352.698600 0.099260
352.913100 -0.022797
353.127600 0.022769
353.342100 0.052788
353.556600 0.044202
353.771200 0.090081
353.985800 -0.020334
354.200300 -0.020634
354.414900 0.007596
354.629500 0.000915
354.844100 0.014952
355.058800 0.054058
355.273400 -0.010495
355.488100 0.056817
355.702700 0.010536
355.917400 0.018171
356.132100 0.039774
356.346800 0.031830
356.561500 0.062853
356.776300 -0.003716
356.991000 0.009486
357.205800 0.021263
357.420600 0.072961
357.635300 0.013095
357.850100 0.036437
358.065000 0.017469
358.279800 -0.002897
358.494600 -0.011559
358.709500 -0.001809
358.924300 -0.009537
359.139200 0.058622
359.354100 0.032274
359.569000 0.005455
359.783900 0.009906
359.998900 -0.045221
360.213800 0.027393
360.428800 0.058517
360.643800 -0.028608
360.858700 -0.031298
361.073700 0.065214
361.288800 0.034608
361.503800 0.078332
361.718800 0.001055
361.933900 0.026510
362.148900 0.022769
362.364000 -0.013120
362.579100 0.055610
362.794200 -0.009007
363.009300 0.062927
363.224500 -0.010936
363.439600 0.010180
363.654800 0.035033
363.869900 -0.015630
364.085100 0.018473
364.300300 -0.023064
364.515500 0.063092
364.730800 0.055610
364.946000 0.016233
365.161200 0.025196
365.376500 0.033551
365.591800 0.038356
365.807100 0.005127
366.022400 0.053159
366.237700 0.047098
366.453000 0.066831
366.668400 0.063046
366.883700 0.015425
367.099100 0.016207
367.314500 0.015635
367.529900 0.062507
367.745300 0.032827
367.960700 0.032508
368.176100 0.016577
368.391600 0.022271
368.607000 0.036319
368.822500 0.044718
369.038000 0.089060
369.253500 0.007088
369.469000 0.009010
369.684500 0.071618
369.900100 0.011664
370.115600 0.001041
370.331200 -0.007391
370.546800 0.011183
370.762400 0.068007
370.978000 0.017626
371.193600 0.002260
371.409200 0.006566
371.624900 0.057144
371.840500 0.059208
372.056200 0.026476
372.271900 -0.029045
372.487600 0.097326
372.703300 0.025872
372.919000 0.002278
373.134800 0.001235
373.350500 0.009391
373.566300 0.012216
373.782000 0.011952
373.997800 0.044114
374.213600 0.023301
374.429400 0.020369
374.645300 0.065563
374.861100 -0.030404
375.077000 -0.014388
375.292800 -0.034338
375.508700 0.005874
375.724600 0.007281
375.940500 0.005072
376.156400 0.024207
376.372400 0.037136
376.588300 0.014981
376.804300 0.013592
377.020300 0.062832
377.236200 0.054804
377.452200 0.045776
377.668200 0.046802
377.884300 0.013588
378.100300 0.004067
378.316400 0.045627
378.532400 0.002146
378.748500 0.039783
378.964600 0.046550
379.180700 0.051027
379.396800 0.046208
379.612900 -0.006050
379.829100 0.045468
380.045200 0.016387
380.261400 0.044010
380.477600 0.043682
380.693800 -0.010131
380.910000 0.063322
381.126200 -0.001321
381.342400 0.054057
381.558700 -0.021916
381.774900 0.025184
381.991200 0.025839
382.207500 -0.004480
382.423800 0.030447
382.640100 0.016736
382.856400 0.041828
383.072800 -0.001827
383.289100 0.026225
383.505500 0.026851
383.721900 0.019318
383.938200 0.034184
384.154600 0.005509
384.371100 0.007365
384.587500 0.012292
384.803900 0.045561
385.020400 0.030692
385.236800 0.010077
385.453300 0.042901
385.669800 0.001807
385.886300 0.004298
386.102800 0.039081
386.319400 0.016733
386.535900 0.026971
386.752500 0.035492
386.969000 -0.000317
387.185600 0.023927
387.402200 0.024564
387.618800 0.025311
387.835500 0.014069
388.052100 0.031525
388.268700 0.031290
388.485400 0.023273
388.702100 0.021244
388.918800 -0.002366
389.135500 0.034349
389.352200 0.022548
389.568900 0.007502
389.785600 0.031753
390.002400 0.008892
390.219200 0.017991
390.435900 0.035823
390.652700 0.004707
390.869500 0.045407
391.086300 0.033224
391.303200 0.029450
391.520000 0.004073
391.736900 0.022334
391.953700 0.028489
392.170600 0.013793
392.387500 0.010031
392.604400 0.034243
392.821300 0.002146
393.038300 0.011696
393.255200 0.027721
393.472200 0.036161
393.689100 0.029696
393.906100 0.001498
394.123100 0.012372
394.340100 0.014812
394.557200 0.013801
394.774200 0.002825
394.991200 -0.005685
395.208300 0.001575
395.425400 0.016793
395.642500 0.028484
395.859600 0.026564
396.076700 0.012890
396.293800 0.016559
396.510900 0.027619
396.728100 0.008737
396.945300 0.030333
397.162400 0.019967
397.379600 0.013902
397.596800 0.022456
397.814000 0.006892
398.031300 0.050588
398.248500 0.028109
398.465800 0.050190
398.683000 0.006521
398.900300 0.030550
399.117600 0.012933
399.334900 0.037321
399.552200 0.027082
399.769600 0.025026
399.986900 0.017559
400.204300 0.020992
400.421600 0.013086
400.639000 0.031832
400.856400 0.028885
401.073800 0.008674
401.291200 0.024665
401.508700 0.032148
401.726100 0.044911
401.943600 -0.007914
402.161000 -0.001220
402.378500 0.026957
402.596000 0.027546
402.813500 0.015829
403.031000 0.041581
403.248600 0.026164
403.466100 0.015085
403.683700 0.033350
403.901300 0.032058
404.118900 0.014866
404.336500 0.030024
404.554100 0.012957
404.771700 0.028145
404.989300 0.005936
405.207000 0.033839
405.424600 0.024389
405.642300 0.021753
405.860000 0.028696
406.077700 0.033994
406.295400 0.029453
406.513100 0.021703
406.730900 0.018824
406.948600 0.016066
407.166400 0.039919
407.384200 0.011758
407.602000 0.022811
407.819800 0.028872
408.037600 0.048751
408.255400 -0.000291
408.473300 0.006207
408.691100 0.023196
408.909000 0.023902
409.126900 0.008992
409.344800 0.005322
409.562700 0.004595
409.780600 0.049053
409.998500 0.023791
410.216500 0.005017
410.434400 0.042576
410.652400 0.034907
410.870400 0.043527
411.088400 0.019289
411.306400 0.019110
411.524400 0.045893
411.742400 0.010799
411.960500 0.024192
412.178500 -0.000391
412.396600 0.014759
412.614700 0.007737
412.832800 0.009017
413.050900 0.050366
413.269000 0.017952
413.487100 0.028412
413.705300 0.029940
413.923400 0.026545
414.141600 0.032391
414.359800 0.018374
414.578000 0.009005
414.796200 0.003673
415.014400 0.049230
415.232600 0.020442
415.450900 0.025069
415.669200 0.005947
415.887400 0.037531
416.105700 0.035363
416.324000 0.031836
416.542300 0.019171
416.760600 0.011488
416.979000 0.028389
417.197300 0.020977
417.415700 0.010983
417.634100 0.018292
417.852400 0.013726
418.070800 0.014933
418.289300 0.019253
418.507700 0.026081
418.726100 0.022662
418.944600 0.020605
419.163000 -0.012599
419.381500 0.016919
419.600000 0.031528
419.818500 0.013792
420.037000 0.010273
420.255500 0.029128
420.474100 0.036572
420.692600 0.016834
420.911200 0.011189
421.129800 0.023927
421.348300 0.026550
421.566900 0.021868
421.785600 0.020798
422.004200 0.021380
422.222800 0.024408
422.441500 0.041969
422.660100 0.015825
422.878800 0.030699
423.097500 0.025223
423.316200 0.019499
423.534900 0.009677
423.753600 0.002130
423.972400 0.024611
424.191100 0.019859
424.409900 0.022358
424.628700 0.022052
424.847500 0.011895
425.066300 0.034195
425.285100 0.020233
425.503900 0.022882
425.722800 0.030248
425.941600 0.023463
426.160500 0.009529
426.379300 0.024626
426.598200 0.024853
426.817100 0.007802
427.036100 0.019097
427.255000 0.027443
427.473900 0.032795
427.692900 0.027218
427.911800 0.023596
428.130800 0.025814
428.349800 0.013535
428.568800 0.015833
428.787800 0.018454
429.006800 0.023847
429.225900 0.022315
429.444900 0.028179
429.664000 0.008006
429.883100 0.023545
430.102200 0.025798
430.321300 0.029981
430.540400 0.030218
430.759500 0.026936
430.978700 0.029790
431.197800 0.021821
431.417000 0.007707
431.636200 0.022266
431.855300 0.026360
432.074500 0.019678
432.293800 0.033873
432.513000 0.033359
432.732200 0.012466
432.951500 0.031115
433.170700 0.042859
433.390000 -0.000999
433.609300 0.034026
433.828600 0.027847
434.047900 0.031357
434.267300 0.041137
434.486600 0.012412
434.705900 0.021210
434.925300 0.035308
435.144700 0.033995
435.364100 0.028734
435.583500 0.024586
435.802900 0.011860
436.022300 0.016813
436.241800 0.019139
436.461200 0.032394
436.680700 0.030709
436.900100 0.029127
437.119600 0.014933
437.339100 0.022332
437.558600 0.011503
437.778200 0.009968
437.997700 0.017782
438.217300 0.014903
438.436800 0.003827
438.656400 0.026918
438.876000 0.007793
439.095600 -0.006935
439.315200 0.027920
439.534800 0.018270
439.754500 0.010124
439.974100 0.041113
440.193800 0.033616
440.413500 0.040200
440.633100 0.013619
440.852800 0.029931
441.072500 0.042528
441.292300 0.027505
441.512000 0.036149
441.731800 0.037577
441.951500 0.017877
442.171300 0.019773
442.391100 0.021968
442.610900 0.025280
442.830700 0.015449
443.050500 0.023676
443.270300 0.002086
443.490200 0.019399
443.710100 0.033640
443.929900 0.024829
444.149800 0.026479
444.369700 0.022407
444.589600 0.011449
444.809500 0.018098
445.029500 0.038222
445.249400 0.031080
445.469400 0.024544
445.689400 0.011832
445.909300 0.004670
446.129300 0.026475
446.349300 0.031862
446.569400 0.028481
446.789400 0.029823
447.009400 0.042319
447.229500 0.019878
447.449600 0.014889
447.669600 0.015119
447.889700 0.022338
448.109800 0.013092
448.330000 0.023321
448.550100 0.043772
448.770200 0.014395
448.990400 0.025597
449.210600 0.041041
449.430700 0.013540
449.650900 0.019720
449.871100 0.020536
450.091400 0.026830
450.311600 0.023656
450.531800 0.021835
450.752100 0.032522
450.972400 0.004025
451.192600 0.034639
451.412900 0.039898
451.633200 0.003395
451.853500 0.020084
452.073900 0.018154
452.294200 0.032917
452.514600 0.023437
452.734900 -0.016104
452.955300 0.010015
453.175700 0.024530
453.396100 0.020246
453.616500 0.019581
453.836900 0.027878
454.057400 0.021630
454.277800 0.023223
454.498300 0.029501
454.718800 0.022462
454.939300 0.015994
455.159700 0.023292
455.380300 0.017148
455.600800 0.007942
455.821300 0.021871
456.041900 0.013826
456.262400 0.027634
456.483000 0.027020
456.703600 0.004625
456.924200 0.025201
457.144800 0.007764
457.365400 0.025210
457.586000 0.020898
457.806700 0.015325
458.027400 0.038875
458.248000 0.004413
458.468700 0.024740
458.689400 0.014201
458.910100 0.021605
459.130800 0.033966
459.351600 0.008105
459.572300 0.023717
459.793100 0.024329
460.013800 0.022087
460.234600 0.030667
460.455400 0.036296
460.676200 0.018137
460.897000 0.022981
461.117800 0.026643
461.338700 0.017315
461.559500 0.021957
461.780400 0.001076
462.001300 0.030806
462.222200 -0.001898
462.443100 0.017371
462.664000 0.013312
462.884900 0.006654
463.105900 0.006265
463.326800 0.014708
463.547800 0.025522
463.768700 0.026358
463.989700 0.028776
464.210700 0.021235
464.431700 0.016835
464.652800 0.012764
464.873800 0.023396
465.094800 0.033636
465.315900 0.015834
465.537000 0.023217
465.758100 0.030848
465.979200 0.019422
466.200300 0.018582
466.421400 0.014384
466.642500 0.019797
466.863700 0.022258
467.084800 0.030245
467.306000 0.028876
467.527200 0.020440
467.748400 0.025200
467.969600 0.023500
468.190800 0.040512
468.412000 0.034379
468.633300 0.040423
468.854500 0.019761
469.075800 0.009936
469.297000 0.002277
469.518300 0.015304
469.739600 0.028326
469.961000 -0.000531
470.182300 -0.004513
470.403600 0.014650
470.625000 0.032730
470.846300 0.034794
471.067700 0.012382
471.289100 0.021680
471.510500 0.000588
471.731900 0.007543
471.953300 0.001128
472.174800 0.027331
472.396200 0.015540
472.617700 0.029349
472.839100 0.014126
473.060600 0.035605
473.282100 0.033539
473.503600 0.029653
473.725100 0.029284
473.946700 0.028184
474.168200 0.023224
474.389800 0.024204
474.611300 0.033200
474.832900 0.008955
475.054500 0.021548
475.276100 0.018420
475.497700 0.011166
475.719300 0.005822
475.941000 0.007885
476.162600 0.030055
476.384300 0.027339
476.606000 0.016050
476.827700 0.040434
477.049400 0.017686
477.271100 0.030656
477.492800 0.023307
477.714500 0.010800
477.936300 0.038833
478.158000 0.017593
478.379800 0.030946
478.601600 0.028011
478.823400 0.027687
479.045200 0.037897
479.267000 0.023725
479.488800 0.011791
479.710700 0.016779
479.932500 0.024766
480.154400 0.023713
480.376300 0.009928
480.598200 0.036019
480.820100 0.004045
481.042000 0.020741
481.263900 0.024979
481.485900 0.013361
481.707800 0.032247
481.929800 0.006798
482.151700 0.025594
482.373700 0.020494
482.595700 0.009446
482.817700 0.033200
483.039800 0.021151
483.261800 0.026855
483.483800 0.034691
483.705900 0.009977
483.928000 0.015838
484.150100 0.030343
484.372100 0.025729
484.594300 0.010472
484.816400 0.010189
485.038500 0.024905
485.260600 0.031700
485.482800 0.028198
485.705000 0.019843
485.927100 0.023357
486.149300 0.024031
486.371500 0.022183
486.593700 0.027256
486.816000 0.027659
487.038200 0.019384
487.260500 0.018325
487.482700 0.026281
487.705000 0.015275
487.927300 0.018077
488.149600 0.025699
488.371900 0.027317
488.594200 0.020113
488.816500 0.001869
489.038900 0.023326
489.261200 0.019237
489.483600 0.012507
489.706000 0.014395
489.928400 0.023884
490.150800 0.012304
490.373200 0.014147
490.595600 0.008014
490.818000 0.030874
491.040500 0.015416
491.263000 0.003797
491.485400 0.017291
491.707900 0.025826
491.930400 0.031967
492.152900 0.013873
492.375500 0.011235
492.598000 0.011498
492.820500 0.035226
493.043100 0.030881
493.265700 0.024235
493.488200 0.028291
493.710800 0.006765
493.933400 0.013760
494.156100 0.018435
494.378700 0.025800
494.601300 0.026918
494.824000 0.014077
495.046600 0.015414
495.269300 0.027199
495.492000 0.025984
495.714700 0.018026
495.937400 0.018995
496.160100 0.023754
496.382900 0.029285
496.605600 0.018635
496.828400 0.025127
497.051100 0.031784
497.273900 0.035953
497.496700 0.032862
497.719500 0.013853
497.942300 0.015394
498.165200 0.026829
498.388000 0.028714
498.610900 0.014032
498.833700 0.020400
499.056600 0.020235
499.279500 0.018189
499.502400 0.018388
499.725300 0.032801
499.948200 0.020499
500.171200 0.005705
500.394100 0.028897
500.617100 0.010518
500.840000 0.018711
501.063000 0.035279
501.286000 0.029635
501.509000 0.008835
501.732000 0.023972
501.955100 0.011465
502.178100 0.023945
502.401200 0.008355
502.624200 0.012520
502.847300 -0.002079
503.070400 0.031537
503.293500 0.025714
503.516600 0.012712
503.739700 0.008258
503.962800 0.010838
504.186000 0.012644
504.409200 0.022867
504.632300 0.015575
504.855500 0.042427
505.078700 0.011212
505.301900 0.032493
505.525100 0.038564
505.748300 0.032071
505.971600 0.010327
506.194800 0.029545
506.418100 0.027064
506.641400 0.023170
506.864700 0.025167
507.088000 -0.010417
507.311300 0.009983
507.534600 0.026719
507.757900 0.030057
507.981300 0.021764
508.204600 0.011005
508.428000 0.019577
508.651400 0.009313
508.874800 0.029531
509.098200 0.023899
509.321600 0.018867
509.545000 0.028704
509.768500 0.033930
509.991900 0.031820
510.215400 0.030476
510.438800 -0.000213
510.662300 0.016681
510.885800 0.023770
511.109300 0.030786
511.332900 0.018437
511.556400 0.019423
511.779900 0.033811
512.003500 0.030510
512.227000 0.045250
512.450600 0.002751
512.674200 0.020381
512.897800 0.016798
513.121400 0.032381
513.345100 0.013159
513.568700 0.001147
513.792300 0.016659
514.016000 0.012842
514.239700 0.035236
514.463400 0.013605
514.687100 0.022609
514.910800 0.000479
515.134500 0.030775
515.358200 0.029720
515.581900 0.008291
515.805700 0.015530
516.029500 0.019697
516.253200 0.024179
516.477000 0.027289
516.700800 0.016937
516.924600 0.003881
517.148500 0.013389
517.372300 0.026765
517.596100 -0.001574
517.820000 0.045030
518.043900 0.036483
518.267700 0.029660
518.491600 0.021653
518.715500 0.016278
518.939500 0.032982
519.163400 0.012238
519.387300 0.034953
519.611300 0.023774
519.835200 0.015183
520.059200 0.014786
520.283200 0.030174
520.507200 0.025438
520.731200 0.011306
520.955200 0.053306
521.179200 0.012144
521.403300 0.024068
521.627300 -0.011946
521.851400 0.007799
522.075500 0.004879
522.299600 0.031531
522.523700 0.007731
522.747800 0.005390
522.971900 0.034790
523.196000 0.030024
523.420200 0.010873
523.644300 -0.001493
523.868500 0.023024
524.092700 0.021818
524.316900 0.019672
524.541100 0.019185
524.765300 0.026005
524.989500 0.020969
525.213800 0.041070
525.438000 0.032723
525.662300 0.051363
525.886500 0.014032
526.110800 -0.000957
526.335100 0.024482
526.559400 -0.012987
526.783700 0.010315
527.008100 0.020336
527.232400 0.013425
527.456800 0.015410
527.681100 0.008060
527.905500 0.000984
528.129900 0.016761
528.354300 0.012493
528.578700 0.022057
528.803100 0.016914
529.027600 0.005920
529.252000 0.035289
529.476500 0.026904
529.700900 0.010436
529.925400 0.023919
530.149900 0.016860
530.374400 0.033825
530.598900 0.013259
530.823400 0.044566
531.048000 0.007297
531.272500 0.029024
531.497100 0.009767
531.721700 0.026578
531.946200 0.016312
532.170800 0.010020
532.395400 0.004871
532.620000 0.007780
532.844700 0.014623
533.069300 0.013794
533.294000 0.003005
533.518600 0.009711
533.743300 0.026201
533.968000 0.035153
534.192700 0.028368
534.417400 0.029180
534.642100 0.040211
534.866800 0.013709
535.091600 0.022231
535.316300 0.025061
535.541100 0.012935
535.765900 -0.005764
535.990700 0.020910
536.215500 0.005829
536.440300 0.008310
536.665100 0.018675
536.889900 -0.003065
537.114800 -0.000406
537.339600 0.018843
537.564500 0.037641
537.789400 0.019884
538.014300 0.013174
538.239200 0.006550
538.464100 0.028067
538.689000 0.012774
538.913900 0.026953
539.138900 0.009680
539.363800 0.025878
539.588800 0.027947
539.813800 0.044134
540.038800 0.029954
540.263800 0.017796
540.488800 0.020322
540.713800 0.011865
540.938900 0.006136
541.163900 0.027840
541.389000 0.009829
541.614000 0.014491
541.839100 0.025993
542.064200 0.000874
542.289300 0.023850
542.514400 0.018989
542.739600 0.016733
542.964700 0.025067
543.189900 0.033603
543.415000 0.038710
543.640200 0.019729
543.865400 0.030897
544.090600 0.015894
544.315800 0.020736
544.541000 0.024025
544.766200 0.025000
544.991500 0.025380
545.216700 0.011699
545.442000 0.026620
545.667300 0.039773
545.892600 0.024803
546.117900 0.019852
546.343200 0.037686
546.568500 0.010303
546.793800 0.026000
547.019200 0.009907
547.244500 0.022273
547.469900 0.022218
547.695300 0.021288
547.920600 0.020861
548.146000 0.024095
548.371500 0.017431
548.596900 0.025062
548.822300 0.014877
549.047800 0.021212
549.273200 0.016501
549.498700 0.006370
549.724200 0.021478
549.949600 0.019337
550.175100 0.025358
550.400700 -0.001150
550.626200 0.030144
550.851700 0.028630
551.077300 0.030236
551.302800 0.016790
551.528400 0.006811
551.754000 0.028566
551.979600 0.028978
552.205200 0.004078
552.430800 0.030094
552.656400 0.009465
552.882000 0.028656
553.107700 0.024424
553.333300 0.021396
553.559000 0.014437
553.784700 0.011787
554.010400 0.033814
554.236100 0.011745
554.461800 0.018975
554.687500 0.013795
554.913200 0.024893
555.139000 0.023451
555.364800 0.007654
555.590500 0.023055
555.816300 0.009454
556.042100 0.034273
556.267900 0.021929
556.493700 0.030008
556.719500 0.010143
556.945400 0.020317
557.171200 0.007513
557.397100 0.014360
557.623000 0.018514
557.848800 0.006216
558.074700 0.014735
558.300600 0.026221
558.526600 0.002743
558.752500 0.027799
558.978400 0.015555
559.204400 0.003724
559.430300 0.006707
559.656300 0.022749
559.882300 0.007162
560.108300 0.005547
560.334300 0.005600
560.560300 0.015133
560.786300 0.019803
561.012400 0.010288
561.238400 0.007965
561.464500 0.017272
561.690500 0.018107
561.916600 0.031051
562.142700 0.014328
562.368800 0.023062
562.594900 0.037450
562.821100 0.027057
563.047200 0.031009
563.273300 0.008184
563.499500 0.012643
563.725700 0.027626
563.951900 0.003839
564.178100 0.018256
564.404300 0.033173
564.630500 0.020278
564.856700 0.025681
565.082900 0.014331
565.309200 0.016232
565.535500 0.022972
565.761700 0.011276
565.988000 0.015376
566.214300 -0.004039
566.440600 0.004324
566.666900 0.005336
566.893200 0.024401
567.119600 0.005555
567.345900 0.010947
567.572300 0.017647
567.798700 0.013395
568.025000 0.015171
568.251400 0.029946
568.477800 0.012537
568.704300 0.012190
568.930700 0.015168
569.157100 0.019169
569.383600 0.008490
569.610000 0.012794
569.836500 0.018739
570.063000 0.009583
570.289500 0.024045
570.516000 0.024177
570.742500 0.019219
570.969000 0.015384
571.195600 0.014595
571.422100 0.012739
571.648700 0.016776
571.875200 0.021459
572.101800 0.020664
572.328400 0.023448
572.555000 0.025635
572.781600 0.035009
573.008200 0.023476
573.234900 0.022367
573.461500 0.021452
573.688200 0.020985
573.914900 0.025583
574.141500 0.019313
574.368200 0.022810
574.594900 0.017473
574.821600 0.018502
575.048400 0.025719
575.275100 0.023090
575.501800 0.023574
575.728600 0.021524
575.955400 0.015770
576.182100 0.030091
576.408900 0.029929
576.635700 0.024194
576.862600 0.025510
577.089400 0.014012
577.316200 0.021699
577.543100 0.026524
577.769900 0.020314
577.996800 0.024805
578.223700 0.025644
578.450500 0.021756
578.677400 0.023113
578.904400 0.023709
579.131300 0.016820
579.358200 0.019064
579.585100 0.020463
579.812100 0.020909
580.039100 0.020231
580.266000 0.017385
580.493000 0.019724
580.720000 0.022412
580.947000 0.014472
581.174100 0.018837
581.401100 0.014626
581.628100 0.021480
581.855200 0.019859
582.082200 0.022877
582.309300 0.022613
582.536400 0.019789
582.763500 0.013192
582.990600 0.016163
583.217700 0.012064
583.444900 0.014098
583.672000 0.019022
583.899100 0.020738
584.126300 0.014153
584.353500 0.013101
584.580700 0.010215
584.807900 0.026001
585.035100 0.025616
585.262300 0.025483
585.489500 0.024565
585.716700 0.019136
585.944000 0.022292
586.171300 0.015147
586.398500 0.017572
586.625800 0.018605
586.853100 0.015576
587.080400 0.015896
587.307700 0.007913
587.535000 0.019109
587.762400 0.014674
587.989700 0.014441
588.217100 0.025055
588.444500 0.027540
588.671800 0.014939
588.899200 0.015488
589.126600 0.020360
589.354000 0.032681
589.581500 0.022668
589.808900 0.020767
590.036300 0.027102
590.263800 0.019487
590.491300 0.016983
590.718700 0.008010
590.946200 0.017713
591.173700 0.018600
591.401200 0.034330
591.628800 0.022450
591.856300 0.016281
592.083800 0.019295
592.311400 0.015809
592.538900 0.016216
592.766500 0.024628
592.994100 0.021596
593.221700 0.026935
593.449300 0.021846
593.676900 0.019047
593.904600 0.022333
594.132200 0.015314
594.359800 0.023738
594.587500 0.021878
594.815200 0.017972
595.042900 0.025738
595.270500 0.024703
595.498300 0.020069
595.726000 0.026051
595.953700 0.027150
596.181400 0.026479
596.409200 0.017935
596.636900 0.030835
596.864700 0.026430
597.092500 0.026519
597.320300 0.027560
597.548100 0.024452
597.775900 0.031177
598.003700 0.028614
598.231500 0.027678
598.459400 0.026058
598.687200 0.032196
598.915100 0.029172
599.143000 0.027265
599.370900 0.031186
599.598800 0.029326
599.826700 0.022157
600.054600 0.022222
600.282500 0.028704
600.510500 0.020648
600.738400 0.019178
600.966400 0.021622
601.194400 0.016873
601.422300 0.017533
601.650300 0.017028
601.878300 0.018817
602.106400 0.023964
602.334400 0.026977
602.562400 0.024805
602.790500 0.029768
603.018500 0.016132
603.246600 0.023624
603.474700 0.025261
603.702800 0.027001
603.930900 0.029089
604.159000 0.034042
604.387100 0.033931
604.615200 0.024414
604.843400 0.024339
605.071500 0.028657
605.299700 0.021285
605.527900 0.017356
605.756100 0.018905
605.984300 0.016429
606.212500 0.014510
606.440700 0.015497
606.668900 0.010616
606.897200 0.011024
607.125400 0.020453
607.353700 0.015448
607.581900 0.026549
607.810200 0.021084
608.038500 0.026652
608.266800 0.019037
608.495100 0.017175
608.723500 0.003834
608.951800 0.023565
609.180100 0.012375
609.408500 0.018991
609.636900 0.020576
609.865300 0.019782
610.093600 0.025067
610.322000 0.025464
610.550500 0.018232
610.778900 0.023654
611.007300 0.017059
611.235700 0.031966
611.464200 0.032195
611.692700 0.017321
611.921100 0.021931
612.149600 0.033112
612.378100 0.022467
612.606600 0.022990
612.835100 0.021829
613.063700 0.022441
613.292200 0.019617
613.520800 0.016916
613.749300 0.026318
613.977900 0.032175
614.206500 0.025208
614.435100 0.020819
614.663700 0.029454
614.892300 0.023222
615.120900 0.008100
615.349500 0.037648
615.578200 0.026398
615.806800 0.030100
616.035500 0.023720
616.264200 0.017869
616.492900 0.021933
616.721600 0.020075
616.950300 0.024170
617.179000 0.011207
617.407700 0.019999
617.636500 0.015298
617.865200 0.018121
618.094000 0.022523
618.322700 0.014811
618.551500 0.010885
618.780300 0.021777
619.009100 0.023717
619.237900 0.028561
619.466700 0.022576
619.695600 0.015235
619.924400 0.026815
620.153300 0.019009
620.382100 0.024853
620.611000 0.021500
620.839900 0.006935
621.068800 0.010278
621.297700 0.016954
621.526600 0.013698
621.755600 0.013460
621.984500 0.025264
622.213500 0.016828
622.442400 0.022821
622.671400 0.036811
622.900400 0.013801
623.129400 0.020188
623.358400 0.016694
623.587400 0.022446
623.816400 0.008534
624.045400 0.025993
624.274500 0.022714
624.503500 0.013114
624.732600 0.007682
624.961700 0.033539
625.190800 0.013923
625.419900 0.015596
625.649000 0.021767
625.878100 0.025301
626.107200 0.009559
626.336400 0.021313
626.565500 0.027684
626.794700 0.027585
627.023800 0.010178
627.253000 0.013266
627.482200 0.016290
627.711400 0.003154
627.940600 0.030694
628.169800 0.020911
628.399100 0.014863
628.628300 0.006277
628.857600 0.011211
629.086800 0.016934
629.316100 0.020050
629.545400 0.009921
629.774700 0.026769
630.004000 0.022203
630.233300 0.034144
630.462600 0.021146
630.692000 0.017937
630.921300 0.025919
631.150700 0.031426
631.380100 0.020662
631.609400 0.022108
631.838800 0.026029
632.068200 0.011902
632.297600 0.014751
632.527100 0.025399
632.756500 0.017488
632.985900 0.019856
633.215400 0.013505
633.444800 0.007815
633.674300 0.023679
633.903800 0.010956
634.133300 0.001800
634.362800 0.023867
634.592300 0.017727
634.821800 0.022108
635.051400 0.031836
635.280900 0.015644
635.510500 -0.013560
635.740000 0.028230
635.969600 0.042665
636.199200 0.025564
636.428800 0.013848
636.658400 0.008890
636.888000 0.017250
637.117700 0.014004
637.347300 0.014745
637.577000 0.018118
637.806600 0.040231
638.036300 0.015877
638.266000 0.012940
638.495700 0.025948
638.725400 0.010408
638.955100 0.017843
639.184800 0.001253
639.414500 0.030280
639.644300 0.007636
639.874000 0.007987
640.103800 0.010572
640.333600 0.003607
640.563300 0.002896
640.793100 0.024861
641.022900 0.012530
641.252800 0.018381
641.482600 0.031889
641.712400 0.026682
641.942300 0.011763
642.172100 0.012231
642.402000 0.020491
642.631900 0.005632
642.861700 0.014685
643.091600 0.028254
643.321600 0.030829
643.551500 -0.018217
643.781400 0.021929
644.011300 0.007706
644.241300 0.024068
644.471200 0.005219
644.701200 -0.001519
644.931200 0.034728
645.161200 0.018250
645.391200 0.020246
645.621200 0.026987
645.851200 -0.006365
646.081200 0.001443
646.311300 0.026244
646.541300 0.056057
646.771400 -0.000320
647.001500 0.012330
647.231600 0.007932
647.461600 0.013547
647.691800 -0.002145
647.921900 0.008210
648.152000 0.020587
648.382100 0.012917
648.612300 0.031742
648.842400 0.010739
649.072600 0.027267
649.302800 0.010925
649.532900 0.017908
649.763100 0.024692
649.993300 0.026304
650.223600 0.026529
650.453800 0.006844
650.684000 0.018867
650.914300 0.012474
651.144500 0.035898
651.374800 0.014669
651.605100 0.003502
651.835400 0.015727
652.065700 0.026114
652.296000 -0.015223
652.526300 0.015398
652.756600 0.004012
652.987000 0.011001
653.217300 0.006887
653.447700 0.038843
653.678000 0.017302
653.908400 0.010729
654.138800 0.043032
654.369200 0.041599
654.599600 0.040700
654.830000 0.031663
655.060500 0.053757
655.290900 0.038940
655.521300 0.045921
655.751800 0.036487
655.982300 0.002910
656.212800 0.000974
656.443300 0.001458
656.673800 0.001232
656.904300 0.002850
657.134800 0.040278
657.365300 0.041240
657.595900 0.035709
657.826400 0.039315
658.057000 0.039770
658.287500 0.042028
658.518100 0.035376
658.748700 0.035899
658.979300 0.040359
659.209900 0.039085
659.440600 0.036961
659.671200 0.033336
659.901800 0.037834
660.132500 0.024181
660.363200 0.043527
660.593800 0.041794
660.824500 0.013492
661.055200 0.017698
661.285900 0.039734
661.516600 0.023745
661.747400 0.031688
661.978100 0.025436
662.208800 0.041869
662.439600 0.024176
662.670400 0.048956
662.901100 0.049281
663.131900 0.031298
663.362700 0.030792
663.593500 0.055708
663.824300 0.015342
664.055200 -0.003032
664.286000 0.001649
664.516800 0.016408
664.747700 0.042271
664.978600 0.002686
665.209400 0.040575
665.440300 0.036690
665.671200 0.035594
665.902100 0.041318
666.133000 0.034753
666.364000 0.038039
666.594900 0.020102
666.825900 0.021182
667.056800 0.026914
667.287800 0.026986
667.518800 0.015466
667.749700 0.028514
667.980700 0.029284
668.211700 0.009543
668.442800 0.024209
668.673800 0.049557
668.904800 0.026782
669.135900 0.054821
669.366900 0.027696
669.598000 0.028809
669.829100 0.010465
670.060200 0.009439
670.291300 0.046019
670.522400 0.016358
670.753500 0.026803
670.984600 0.032884
671.215700 0.023198
671.446900 0.063659
671.678100 0.020866
671.909200 0.029060
672.140400 0.041028
672.371600 0.013029
672.602800 0.010350
672.834000 0.016107
673.065200 0.008572
673.296400 0.001512
673.527700 0.030152
673.758900 0.015347
673.990200 0.027719
674.221400 0.035113
674.452700 0.020234
674.684000 0.036614
674.915300 0.060149
675.146600 0.024300
675.377900 -0.019337
675.609300 0.043673
675.840600 0.044978
676.071900 0.024958
676.303300 0.017944
676.534700 0.000000
676.766100 0.042629
676.997400 0.014573
677.228800 0.021577
677.460200 0.024715
677.691700 0.027790
677.923100 0.011635
678.154500 0.025395
678.386000 0.013408
678.617400 0.012270
678.848900 0.021707
679.080400 0.006208
679.311900 0.026864
679.543400 0.005017
679.774900 0.022073
680.006400 0.040265
680.237900 0.017142
680.469400 0.050658
680.701000 0.033677
680.932500 0.009031
681.164100 0.026609
681.395700 0.010922
681.627300 0.031678
681.858900 0.033350
682.090500 0.025202
682.322100 0.019472
682.553700 0.018018
682.785400 0.022304
683.017000 0.039328
683.248700 0.017288
683.480300 0.011971
683.712000 -0.019672
683.943700 0.015870
684.175400 0.039492
684.407100 0.034897
684.638800 0.004194
684.870500 0.019270
685.102300 0.027999
685.334000 0.009711
685.565800 0.036156
685.797500 0.034269
686.029300 0.013074
686.261100 0.041022
686.492900 0.012997
686.724700 0.023609
686.956500 -0.000399
687.188300 0.020718
687.420200 0.023797
687.652000 0.012379
687.883800 0.017330
688.115700 0.006944
688.347600 0.024285
688.579500 0.024488
688.811400 0.021112
689.043300 0.042309
689.275200 0.024182
689.507100 0.023605
689.739000 0.020087
689.971000 0.016450
690.202900 0.029691
690.434900 0.016110
690.666900 0.032133
690.898800 0.030487
691.130800 0.031254
691.362800 0.013445
691.594800 0.025233
691.826900 0.036334
692.058900 0.020002
692.290900 0.039952
692.523000 0.039821
692.755000 0.045739
692.987100 0.008892
693.219200 0.026786
693.451300 0.018552
693.683400 0.019882
693.915500 0.000867
694.147600 0.002961
694.379700 0.044540
694.611900 0.027654
694.844000 0.017658
695.076200 0.004223
695.308300 0.022815
695.540500 0.026735
695.772700 -0.007677
696.004900 0.034520
696.237100 0.024943
696.469300 0.011296
696.701600 0.025133
696.933800 0.017703
697.166000 0.015328
697.398300 0.042294
697.630600 0.044630
697.862800 0.045423
698.095100 0.036597
698.327400 0.023228
698.559700 0.027222
698.792000 0.018927
699.024300 0.010584
699.256700 0.041133
699.489000 0.017721
699.721400 0.029469
699.953700 0.007180
700.186100 0.001356
700.418500 0.014679
700.650900 0.010258
700.883300 0.018889
701.115700 0.032813
701.348100 0.007831
701.580600 0.024532
701.813000 0.034871
702.045400 0.004499
702.277900 0.021483
702.510400 0.049434
702.742900 0.002308
702.975300 0.003074
703.207800 0.027171
703.440300 0.057346
703.672900 0.045814
703.905400 0.003685
704.137900 0.025088
704.370500 0.010724
704.603000 0.006486
704.835600 0.027416
705.068200 0.007416
705.300800 0.011179
705.533400 0.030815
705.766000 0.020702
705.998600 0.039350
706.231200 0.026224
706.463800 0.025832
706.696500 0.030179
706.929100 0.005041
707.161800 -0.003260
707.394500 0.029083
707.627200 0.014798
707.859900 0.047699
708.092600 0.044035
708.325300 0.022627
708.558000 0.014960
708.790700 0.025601
709.023500 0.058590
709.256200 0.013312
709.489000 0.005368
709.721700 -0.009796
709.954500 0.006775
710.187300 0.004831
710.420100 0.028294
710.652900 -0.007733
710.885700 0.020137
711.118600 0.028567
711.351400 0.002120
711.584200 0.010395
711.817100 0.027037
712.050000 0.030284
712.282800 0.008408
712.515700 0.020611
712.748600 0.029945
712.981500 0.019429
713.214400 0.032656
713.447400 0.008842
713.680300 0.011113
713.913200 0.025834
714.146200 0.003809
714.379100 0.016739
714.612100 0.017014
714.845100 0.018613
715.078100 0.029652
715.311100 0.001814
715.544100 0.020475
715.777100 0.008570
716.010200 0.019900
716.243200 -0.018439
716.476200 0.050040
716.709300 0.050483
716.942400 0.019437
717.175400 0.019280
717.408500 0.027274
717.641600 0.005886
717.874700 0.026707
718.107800 0.030295
718.341000 0.023211
718.574100 0.020723
718.807200 0.029242
719.040400 0.029971
719.273600 0.008847
719.506700 0.019557
719.739900 0.017914
719.973100 0.002847
720.206300 0.003088
720.439500 0.021173
720.672700 0.005434
720.906000 0.020303
721.139200 -0.006440
721.372500 0.035963
721.605700 0.028034
721.839000 0.032050
722.072300 0.016561
722.305500 0.012248
722.538800 0.017808
722.772100 -0.003927
723.005500 -0.001931
723.238800 0.018013
723.472100 0.004866
723.705500 0.019507
723.938800 0.009174
724.172200 0.023232
724.405600 0.017840
724.638900 0.055197
724.872300 0.011634
725.105700 0.023523
725.339100 0.041493
725.572600 0.017619
725.806000 0.001873
726.039400 0.019205
726.272900 0.039558
726.506300 0.032960
726.739800 0.029232
726.973300 0.009315
727.206800 0.027176
727.440300 0.024682
727.673800 0.022753
727.907300 0.034845
728.140800 0.022106
728.374300 0.014469
728.607900 0.017477
728.841400 0.020064
729.075000 0.029456
729.308600 0.000100
729.542100 0.023652
729.775700 0.022595
730.009300 0.003610
730.242900 0.018516
730.476600 0.021845
730.710200 0.031610
730.943800 0.041488
731.177500 0.039255
731.411100 0.026970
731.644800 0.025628
731.878500 0.014971
732.112200 0.008296
732.345800 0.020902
732.579500 0.045759
732.813300 0.034025
733.047000 0.036554
733.280700 0.041106
733.514500 0.012436
733.748200 0.029007
733.982000 0.030327
734.215700 0.012868
734.449500 0.027783
734.683300 0.041904
734.917100 0.010589
735.150900 0.011341
735.384700 0.022810
735.618500 0.014862
735.852400 0.038326
736.086200 0.030878
736.320100 0.010446
736.553900 0.044493
736.787800 0.026679
737.021700 0.017190
737.255600 0.021460
737.489500 0.013653
737.723400 0.008102
737.957300 0.006548
738.191200 0.011969
738.425200 0.017701
738.659100 0.025537
738.893100 -0.013435
739.127100 0.029236
739.361000 0.033534
739.595000 0.028649
739.829000 0.017051
740.063000 0.010372
740.297000 0.027277
740.531000 0.009194
740.765100 0.018225
740.999100 0.038011
741.233200 0.029822
741.467200 0.018922
741.701300 0.006234
741.935400 0.040269
742.169500 0.004502
742.403600 0.004285
742.637700 0.015114
742.871800 -0.006090
743.105900 0.019499
743.340000 0.010447
743.574200 0.009566
743.808300 0.027243
744.042500 -0.005500
744.276700 0.008190
744.510800 -0.011961
744.745000 0.001466
744.979200 0.019123
745.213400 0.014876
745.447700 0.010438
745.681900 -0.004683
745.916100 0.015970
746.150400 0.017704
746.384600 0.034976
746.618900 0.008636
746.853200 0.023081
747.087400 0.003201
747.321700 0.019384
747.556000 0.023655
747.790300 0.037721
748.024700 -0.003598
748.259000 0.019068
748.493300 0.027203
748.727700 0.025029
748.962000 0.024943
749.196400 0.017003
749.430800 0.028652
749.665200 0.003894
749.899500 0.007750
750.133900 0.017090
750.368400 0.035380
750.602800 0.026977
750.837200 0.008995
751.071700 0.018145
751.306100 0.034040
751.540600 0.012222
751.775000 0.017153
752.009500 0.016298
752.244000 0.023440
752.478500 0.000735
752.713000 0.011916
752.947500 0.007059
753.182000 0.036206
753.416600 0.015976
753.651100 0.043445
753.885600 0.026703
754.120200 0.023732
754.354800 0.004182
754.589400 0.017360
754.823900 0.014909
755.058500 0.033920
755.293100 0.012498
755.527800 0.030838
755.762400 0.011152
755.997000 0.020758
756.231700 0.035340
756.466300 0.017860
756.701000 0.027733
756.935600 0.023322
757.170300 0.024739
757.405000 0.031114
757.639700 0.027996
757.874400 0.034063
758.109100 0.033896
758.343800 0.018790
758.578600 0.019112
758.813300 0.023856
759.048100 0.023559
759.282800 0.011683
759.517600 0.019534
759.752400 0.026170
759.987200 0.023986
760.222000 0.034084
760.456800 0.021249
760.691600 0.028383
760.926400 0.029931
761.161300 0.025324
761.396100 0.003307
761.631000 0.027794
761.865800 0.052510
762.100700 0.037317
762.335600 0.035848
762.570500 0.020892
762.805400 0.018172
763.040300 0.019415
763.275200 0.028052
763.510100 0.030555
763.745000 0.037585
763.980000 0.045787
764.214900 0.026532
764.449900 0.041125
764.684900 0.029077
764.919800 0.007761
765.154800 0.017352
765.389800 0.026266
765.624800 0.037966
765.859900 0.008204
766.094900 0.027374
766.329900 0.032506
766.565000 0.017404
766.800000 0.004993
767.035100 0.020641
767.270100 0.019924
767.505200 0.019830
767.740300 0.022733
767.975400 0.029307
768.210500 0.037906
768.445600 0.003072
768.680800 0.019890
768.915900 0.048264
769.151000 0.017943
769.386200 0.016497
769.621400 0.008080
769.856500 0.038814
770.091700 0.024084
770.326900 0.007772
770.562100 0.027357
770.797300 0.015012
771.032500 0.017328
771.267700 0.017192
771.503000 0.018287
771.738200 0.036549
771.973500 -0.004189
772.208700 0.011334
772.444000 0.031384
772.679300 0.000409
772.914600 0.019504
773.149900 0.015069
773.385200 0.006855
773.620500 0.014970
773.855800 0.013355
774.091100 0.028039
774.326500 0.018529
774.561800 0.032056
774.797200 0.050802
775.032600 0.064476
775.267900 0.010259
775.503300 0.026808
775.738700 0.013477
775.974100 0.022546
776.209500 0.025556
776.445000 0.032061
776.680400 0.045828
776.915800 0.014752
777.151300 0.027086
777.386800 0.015407
777.622200 0.007041
777.857700 0.016902
778.093200 0.004727
778.328700 0.024609
778.564200 0.018353
778.799700 0.031200
779.035200 0.005101
779.270700 0.002659
779.506300 0.023657
779.741800 0.013135
779.977400 0.013102
780.213000 0.044264
780.448500 -0.000075
780.684100 0.027193
780.919700 0.045648
781.155300 0.008380
781.390900 0.053090
781.626500 0.021400
781.862200 0.024888
782.097800 0.028712
782.333500 0.007478
782.569100 0.028537
782.804800 0.012440
783.040500 0.011497
783.276100 0.009220
783.511800 0.010211
783.747500 0.027884
783.983200 -0.000115
784.219000 0.029017
784.454700 0.002342
784.690400 0.032403
784.926200 0.033920
785.161900 0.041423
785.397700 0.023511
785.633500 -0.007723
785.869200 0.023862
786.105000 0.021026
786.340800 0.020887
786.576600 0.031811
786.812400 0.034692
787.048300 0.035294
787.284100 0.036790
787.519900 0.020328
787.755800 0.032847
787.991700 0.011396
788.227500 0.012419
788.463400 0.034567
788.699300 0.015989
788.935200 0.014787
789.171100 0.031405
789.407000 0.020259
789.642900 0.041043
789.878900 0.040773
790.114800 0.027910
790.350700 0.019112
790.586700 0.022403
790.822700 0.030182
791.058600 -0.004110
791.294600 0.040575
791.530600 0.016553
791.766600 0.046538
792.002600 0.034477
792.238700 0.005042
792.474700 0.033126
792.710700 0.006702
792.946800 -0.022156
793.182800 0.034649
793.418900 0.013374
793.655000 0.026711
793.891000 0.030715
794.127100 0.054525
794.363200 0.046356
794.599300 0.021961
794.835500 0.007242
795.071600 0.039264
795.307700 0.037380
795.543900 0.027129
795.780000 0.013496
796.016200 0.021448
796.252300 0.035095
796.488500 0.044153
796.724700 0.042533
796.960900 0.055681
797.197100 0.009030
797.433300 0.014512
797.669500 0.024962
797.905800 0.022296
798.142000 0.025209
798.378300 0.026029
798.614500 0.009408
798.850800 0.021372
799.087100 0.036897
799.323300 0.023273
799.559600 0.005148
799.795900 0.026173
800.032200 0.061847
800.268600 0.013436
800.504900 0.028293
800.741200 0.031296
800.977600 0.040318
801.213900 0.010137
801.450300 0.076428
801.686700 0.022839
801.923000 0.058501
802.159400 0.039311
802.395800 0.027663
802.632200 0.039532
802.868600 -0.024724
803.105100 0.033415
803.341500 0.019717
803.577900 0.045951
803.814400 0.018887
804.050800 0.024130
804.287300 0.021936
804.523800 0.020378
804.760300 0.007239
804.996800 -0.005186
805.233300 0.034449
805.469800 0.033593
805.706300 0.002780
805.942800 0.025782
806.179400 0.004940
806.415900 0.024046
806.652500 0.017179
806.889000 0.063329
807.125600 0.027667
807.362200 0.012613
807.598800 0.031676
807.835400 0.037478
808.072000 0.020592
808.308600 0.008430
808.545200 0.029018
808.781800 -0.010823
809.018500 0.060401
809.255100 0.001808
809.491800 0.010165
809.728400 0.010976
809.965100 0.002094
810.201800 0.023867
810.438500 -0.021971
810.675200 -0.004277
810.911900 0.033391
811.148600 0.020800
811.385300 0.038932
811.622100 0.027612
811.858800 0.000756
812.095600 0.000162
812.332300 0.036772
812.569100 -0.000957
812.805900 -0.000362
813.042700 0.013032
813.279500 0.032823
813.516300 -0.032877
813.753100 0.029362
813.989900 0.030363
814.226700 0.044297
814.463600 0.030493
814.700400 0.033261
814.937300 0.010509
815.174200 0.037041
815.411000 0.012592
815.647900 -0.040910
815.884800 0.009240
816.121700 0.033381
816.358600 0.002198
816.595500 0.044084
816.832400 0.015795
817.069400 -0.009654
817.306300 0.053085
817.543300 0.001627
817.780200 -0.007676
818.017200 0.033434
818.254200 0.039090
818.491200 -0.024029
818.728200 0.050590
818.965200 0.048466
819.202200 0.027485
819.439200 0.005108
819.676200 -0.003331
819.913300 0.008084
820.150300 0.001870
820.387400 0.065311
820.624400 0.047385
820.861500 0.018911
821.098600 0.048673
821.335700 0.068074
821.572700 0.011930
821.809900 0.031474
822.047000 0.063492
822.284100 0.001270
822.521200 0.035250
822.758400 0.048545
822.995500 0.066016
823.232700 0.089413
823.469800 0.058851
823.707000 0.000000
823.944200 0.039351
824.181400 0.048352
824.418600 0.013360
824.655800 0.000709
824.893000 0.022527
825.130200 0.027948
825.367500 0.010644
825.604700 0.039715
825.841900 0.006961
826.079200 0.024609
826.316500 0.035096
826.553700 0.006496
826.791000 0.067658
827.028300 0.042638
827.265600 0.041730
827.502900 0.066228
827.740200 0.038849
827.977600 0.022949
828.214900 0.023250
828.452200 0.025472
828.689600 0.005633
828.927000 -0.004343
829.164300 -0.006083
829.401700 0.032618
829.639100 0.021849
829.876500 0.011198
830.113900 0.068454
830.351300 0.049073
830.588700 0.027465
830.826100 0.001701
831.063600 -0.036717
831.301000 0.058939
831.538500 0.019314
831.775900 -0.001372
832.013400 -0.011824
832.250900 -0.002340
832.488400 0.081096
832.725900 0.029903
832.963400 0.112989
833.200900 0.033072
833.438400 0.030974
833.675900 0.080596
833.913500 0.036542
834.151000 0.040165
834.388600 0.079339
834.626100 0.003547
834.863700 0.060723
835.101300 0.017724
835.338900 0.025754
835.576500 0.034533
835.814100 -0.024531
836.051700 0.004550
836.289300 0.098116
836.526900 -0.052230
836.764600 0.032912
837.002200 0.025135
837.239900 0.058718
837.477500 0.034521
837.715200 -0.027793
837.952900 0.043919
838.190600 0.073087
838.428300 -0.038615
838.666000 0.121306
838.903700 -0.013704
839.141400 0.043155
839.379100 -0.002541
839.616900 0.026071
839.854600 -0.009444
840.092400 0.008260
840.330200 -0.015231
840.567900 0.060046
840.805700 0.044574
841.043500 0.110046
841.281300 0.057109
841.519100 0.050944
841.756900 0.003045
841.994700 -0.056002
842.232600 0.028876
842.470400 0.149530
842.708200 -0.051537
842.946100 -0.001922
843.184000 -0.094628
843.421800 0.057835
843.659700 0.058376
843.897600 -0.069313
844.135500 0.074630
844.373400 -0.015624
844.611300 0.017560
844.849200 -0.009915
845.087200 0.113038
845.325100 0.044080
845.563100 0.086644
845.801000 0.100670
846.039000 0.013484
846.277000 -0.046193
846.514900 -0.056427
846.752900 -0.011237
846.990900 -0.019218
847.228900 -0.031994
847.466900 0.157387
847.705000 -0.007276
847.943000 -0.036176
848.181000 -0.027419
848.419100 0.090512
848.657100 0.077370
848.895200 0.021806
849.133300 0.171098
849.371300 -0.030198
849.609400 0.016537
849.847500 0.016964
850.085600 0.061307
850.323700 0.113524
850.561900 0.001808
850.800000 0.049062
851.038100 0.055473
851.276300 -0.028227
851.514400 -0.001078
851.752600 0.072740
851.990800 -0.025047
852.228900 -0.047567
852.467100 0.028083
852.705300 -0.017388
852.943500 0.021792
853.181700 0.061645
853.420000 -0.000377
853.658200 0.003903
853.896400 0.021574
854.134700 0.007151
854.372900 0.006261
854.611200 0.022771
854.849500 0.082354
855.087700 0.007523
855.326000 0.080841
855.564300 0.011696
855.802600 0.085894
856.040900 0.057714
856.279200 0.047888
856.517600 0.027160
856.755900 -0.009752
856.994200 0.000644
857.232600 0.005060
857.471000 0.031869
857.709300 0.015972
857.947700 -0.003276
858.186100 0.044799
858.424500 -0.031561
858.662900 -0.017872
858.901300 0.045232
859.139700 0.067425
859.378100 -0.054810
859.616600 -0.000539
859.855000 -0.008200
860.093500 -0.004512
860.331900 -0.033248
860.570400 0.081904
860.808900 -0.012856
861.047300 0.055210
861.285800 -0.015964
861.524300 0.165847
861.762800 0.049046
862.001300 -0.009032
862.239900 0.084132
862.478400 -0.010817
862.716900 -0.028399
862.955500 0.062763
863.194000 0.028119
863.432600 0.002804
863.671200 0.017031
863.909800 -0.010163
864.148300 0.032522
864.386900 0.012963
864.625500 0.081640
864.864200 0.049794
865.102800 -0.047313
865.341400 0.049326
865.580000 -0.068885
865.818700 0.058909
866.057300 0.042572
866.296000 0.090356
866.534700 0.015691
866.773300 0.025487
867.012000 0.065422
867.250700 0.061978
867.489400 0.024310
867.728100 -0.016912
867.966900 0.100081
868.205600 -0.035076
868.444300 -0.014843
868.683100 -0.033554
868.921800 -0.003088
869.160600 0.070210
869.399300 0.108394
869.638100 0.046644
869.876900 0.009286
870.115700 -0.022236
870.354500 0.044605
870.593300 -0.026340
870.832100 0.044412
871.070900 -0.006293
871.309700 -0.000712
871.548600 0.120407
871.787400 -0.025990
872.026300 -0.009356
872.265100 -0.065944
872.504000 0.013774
872.742900 0.055802
872.981800 0.047523
873.220700 0.071260
873.459600 0.138276
873.698500 0.070788
873.937400 0.038001
874.176300 0.040001
874.415300 0.111394
874.654200 0.078825
874.893200 0.087797
875.132100 -0.077089
875.371100 -0.006695
875.610100 -0.003025
875.849100 0.050257
876.088000 0.008868
876.327000 0.025084
876.566100 0.023037
876.805100 -0.001253
877.044100 0.003320
877.283100 -0.086069
877.522200 -0.081836
877.761200 -0.017997
878.000300 0.061054
878.239300 0.080462
878.478400 0.005635
878.717500 0.034688
878.956600 0.067736
879.195700 0.104369
879.434800 -0.056744
879.673900 0.071346
879.913000 0.002944
880.152100 0.048481
880.391300 0.014659
880.630400 0.092981
880.869600 -0.032882
881.108700 -0.012676
881.347900 -0.010529
881.587100 0.039094
881.826200 0.035306
882.065400 0.043730
882.304600 -0.007546
882.543800 0.037818
882.783100 0.056153
883.022300 -0.022712
883.261500 0.017609
883.500700 0.037894
883.740000 -0.008655
883.979200 0.025344
884.218500 0.010596
884.457800 -0.008884
884.697100 0.000535
884.936300 0.078275
885.175600 0.050010
885.414900 0.009003
885.654200 0.003630
885.893600 0.004919
886.132900 0.126536
886.372200 0.014708
886.611600 -0.102197
886.850900 0.069696
887.090300 0.050436
887.329600 -0.011219
887.569000 0.056656
887.808400 -0.002259
888.047800 -0.091263
888.287200 0.009101
888.526600 -0.062703
888.766000 -0.030015
889.005400 0.059548
889.244800 -0.045135
889.484300 -0.093605
889.723700 0.127055
889.963200 0.028252
890.202600 0.024945
890.442100 0.077796
890.681600 0.002015
890.921100 0.016482
891.160600 0.043205
891.400100 -0.043073
891.639600 0.084638
891.879100 -0.015643
892.118600 -0.000806
892.358100 -0.010840
892.597700 0.093850
892.837200 0.138374
893.076800 0.022660
893.316300 0.027273
893.555900 0.038378
893.795500 0.080230
894.035100 -0.015487
894.274700 0.035480
894.514300 -0.000266
894.753900 -0.041605
894.993500 0.097390
895.233100 -0.105029
895.472700 0.075992
895.712400 0.045046
895.952000 -0.017911
896.191700 0.015697
896.431400 -0.024424
896.671000 0.036930
896.910700 0.060706
897.150400 -0.025136
897.390100 -0.006547
897.629800 0.055133
897.869500 -0.112635
898.109200 0.086875
898.348900 0.049796
898.588700 0.085474
898.828400 0.052293
899.068200 0.011346
899.307900 0.119842
899.547700 0.021062
899.787500 0.049657
900.027200 -0.037642
900.267000 0.141539
900.506800 0.081229
900.746600 0.012737
900.986400 -0.018686
901.226300 0.038180
901.466100 0.036235
901.705900 0.080642
901.945800 0.031886
902.185600 0.073086
902.425500 0.122464
902.665400 -0.045313
902.905200 0.070033
903.145100 -0.038937
903.385000 -0.087631
903.624900 0.053470
903.864800 0.028237
904.104700 0.027643
904.344600 0.007967
904.584600 -0.118025
904.824500 -0.028041
905.064400 0.123589
905.304400 0.063103
905.544400 0.018028
905.784300 0.171788
906.024300 0.113185
906.264300 -0.031262
906.504300 0.009031
906.744300 0.031554
906.984300 -0.074205
907.224300 0.037855
907.464300 0.100438
907.704300 0.035274
907.944400 -0.068924
908.184400 -0.033823
908.424500 0.003033
908.664500 -0.057976
908.904600 -0.018089
909.144700 0.113544
909.384700 -0.006714
909.624800 -0.012393
909.864900 0.060201
910.105000 0.033877
910.345200 -0.118904
910.585300 -0.066631
910.825400 0.044220
911.065500 -0.021247
911.305700 0.030361
911.545800 0.113158
911.786000 0.060946
912.026200 -0.023081
912.266300 0.133252
912.506500 0.098326
912.746700 -0.058911
912.986900 0.018186
913.227100 -0.071183
913.467300 0.081111
913.707500 -0.033585
913.947800 0.324690
914.188000 0.086997
914.428300 -0.038638
914.668500 0.044007
914.908800 -0.028917
915.149000 -0.102089
915.389300 0.138900
915.629600 0.093185
915.869900 0.081550
916.110200 -0.032769
916.350500 -0.036829
916.590800 -0.028846
916.831100 0.022846
917.071400 -0.014465
917.311800 -0.013778
917.552100 0.063473
917.792500 -0.007517
918.032800 0.064091
918.273200 0.030437
918.513600 0.047559
918.753900 0.075908
918.994300 0.101458
919.234700 0.084962
919.475100 -0.041243
919.715500 -0.017881
919.956000 0.091811
920.196400 -0.016791
920.436800 -0.102630
920.677300 -0.023047
920.917700 0.174903
921.158200 0.171070
921.398600 0.004709
921.639100 0.121478
921.879600 -0.171662
922.120100 0.047865
922.360600 0.082980
922.601100 0.070301
922.841600 -0.001317
923.082100 0.102146
923.322600 0.034963
923.563100 -0.062138
923.803700 0.042022
924.044200 0.146866
924.284800 0.010768
924.525400 -0.003731
924.765900 0.165062
925.006500 -0.066994
925.247100 0.068454
925.487700 -0.018374
925.728300 0.211666
925.968900 -0.025842
926.209500 0.039881
926.450100 -0.120451
926.690800 0.384225
926.931400 -0.100780
927.172000 0.097564
927.412700 0.049256
927.653300 0.043875
927.894000 0.188748
928.134700 0.134587
928.375400 -0.055961
928.616100 0.113222
928.856800 0.137412
929.097500 0.028395
929.338200 0.114916
929.578900 0.184674
929.819600 0.184534
930.060400 -0.084521
930.301100 0.079692
930.541900 0.044885
930.782600 0.165494
931.023400 0.044787
931.264200 0.156711
931.504900 0.211338
931.745700 0.042072
931.986500 0.052189
932.227300 0.175843
932.468100 0.149485
932.708900 0.050781
932.949800 0.017246
933.190600 0.078831
933.431400 -0.063379
933.672300 0.037245
933.913100 -0.093469
934.154000 0.047796
934.394900 0.061987
934.635800 0.020895
934.876600 0.040290
935.117500 0.226813
935.358400 0.042418
935.599300 0.083879
935.840300 -0.071937
936.081200 0.156932
936.322100 -0.173022
936.563000 0.779603
936.804000 0.054347
937.044900 -0.038743
937.285900 -0.065000
937.526900 -0.039811
937.767800 0.177402
938.008800 -0.114059
938.249800 0.442863
938.490800 0.101359
938.731800 0.176183
938.972800 0.231738
939.213800 -0.100039
939.454900 0.130869
939.695900 -0.071241
939.936900 0.168185
940.178000 0.239613
940.419000 0.063972
940.660100 0.360398
940.901200 0.167549
941.142200 -0.340976
941.383300 0.245299
941.624400 0.209289
941.865500 0.168885
942.106600 0.214685
942.347700 -0.127772
942.588900 0.299577
942.830000 0.192852
943.071100 0.114801
943.312300 0.237766
943.553400 0.096317
943.794600 0.084305
944.035700 0.100637
944.276900 0.087120
944.518100 -0.200031
944.759300 0.268770
945.000500 -0.055724
945.241700 0.157620
945.482900 0.696428
945.724100 0.396262
945.965300 -0.065196
946.206600 0.200075
946.447800 0.077458
946.689100 0.090617
946.930300 0.663376
947.171600 0.016716
947.412800 0.211439
947.654100 -0.047435
947.895400 0.440029
948.136700 0.097652
948.378000 -0.316776
948.619300 0.321908
948.860600 0.094441
949.101900 -0.052341
949.343300 0.249437
949.584600 0.122747
949.825900 0.068200
950.067300 0.302803
950.308600 0.046983
950.550000 -0.024674
950.791400 -0.488540
951.032700 -0.140520
951.274100 -0.160383
951.515500 0.218644
951.756900 0.459536
951.998300 0.168378
952.239800 0.169017
952.481200 -0.106648
952.722600 -0.205094
952.964000 0.114114
953.205500 0.064205
953.446900 -0.235675
953.688400 0.039024
953.929900 0.419375
954.171300 -1.295474
954.412800 -0.168091
954.654300 0.043357
954.895800 -0.319601
955.137300 0.203618
955.378800 -0.004009
955.620300 -0.394176
955.861800 0.238676
956.103400 0.290911
956.344900 0.098167
956.586500 0.367860
956.828000 0.077635
957.069600 0.145905
957.311100 -0.191552
957.552700 0.675545
957.794300 0.028677
958.035900 -0.164215
958.277500 -0.286887
958.519100 -0.028008
958.760700 -0.056763
959.002300 -0.431251
959.243900 0.016128
959.485600 0.108995
959.727200 -0.002457
959.968800 0.260543
960.210500 -0.239631
960.452200 0.465985
960.693800 -0.294705
960.935500 -2.850033
961.177200 0.011103
961.418900 -0.256878
961.660600 -0.169346
961.902300 1.013273
962.144000 -0.340238
962.385700 2.791691
962.627400 0.056852
962.869200 -0.094916
963.110900 0.301461
963.352700 0.209678
963.594400 0.106470
963.836200 0.074253
964.077900 -0.022689
964.319700 0.270756
964.561500 0.438605
964.803300 0.348964
965.045100 0.117946
965.286900 0.038108
965.528700 -0.082994
965.770500 -0.014370
966.012300 -0.176952
966.254200 -0.168304
966.496000 -0.302910
966.737900 -0.026931
966.979700 0.064587
967.221600 -0.188644
967.463400 -0.040959
967.705300 0.717719
967.947200 0.334694
968.189100 -0.555781
968.431000 0.241734
968.672900 3.067443
968.914800 0.478745
969.156700 -0.224807
969.398700 -0.101733
969.640600 -0.717803
969.882500 0.226616
970.124500 0.242749
970.366400 0.151089
970.608400 0.974783
970.850400 -0.004212
971.092300 0.356395
971.334300 -0.010962
971.576300 -0.437838
971.818300 0.276464
972.060300 -0.176342
972.302300 0.195900
972.544300 -0.059746
972.786400 0.208545
973.028400 1.066947
973.270400 0.044560
973.512500 0.334238
973.754500 0.025164
973.996600 2.994757
974.238700 0.310883
974.480700 0.064117
974.722800 0.152318
974.964900 0.334694
975.207000 0.606847
975.449100 -0.387455
975.691200 0.223411
975.933300 0.535635
976.175500 -3.096562
976.417600 0.247013
976.659700 0.237067
976.901900 0.290014
977.144000 0.025841
977.386200 0.370326
977.628300 0.558273
977.870500 0.172638
978.112700 -0.086026
978.354900 -0.300666
978.597100 0.324613
978.839300 0.315846
979.081500 0.228223
979.323700 -2.671173
979.565900 -0.215395
979.808200 3.265290
980.050400 0.072527
980.292600 0.343958
980.534900 1.137776
980.777100 2.971276
981.019400 0.010091
981.261700 2.121943
981.504000 0.606164
981.746200 1.845098
981.988500 3.013259
982.230800 0.280456
982.473100 0.278754
982.715500 0.432680
982.957800 2.799341
983.200100 0.332327
983.442400 0.050754
983.684800 -0.192771
983.927100 -0.027084
984.169500 -0.135147
984.411800 0.237905
984.654200 0.667001
984.896600 0.029707
985.139000 -1.619584
985.381400 0.097230
985.623800 0.492098
985.866200 0.432530
986.108600 -2.823474
986.351000 0.010362
986.593400 0.618804
986.835800 0.655564
987.078300 2.682145
987.320700 0.000997
987.563200 2.700704
987.805600 -0.178313
988.048100 1.239819
988.290600 -0.186030
988.533100 -2.785330
988.775600 0.315816
989.018000 3.115278
989.260500 0.002141
989.503100 -2.334454
989.745600 1.044670
989.988100 -2.534026
990.230600 0.453166
990.473200 2.935507
990.715700 1.019632
990.958200 0.067380
991.200800 -0.104958
991.443400 -1.785330
991.685900 -0.281994
991.928500 -2.939519
992.171100 -0.357511
992.413700 3.125806
992.656300 0.067196
992.898900 2.866287
993.141500 0.153145
993.384100 3.021603
993.626700 0.157761
993.869400 0.811032
994.112000 -0.157136
994.354700 0.341770
994.597300 0.595626
994.840000 -2.608526
995.082600 -0.374299
995.325300 2.269513
995.568000 0.324889
995.810700 2.127105
996.053400 -0.175894
996.296100 2.128399
996.538800 0.053964
996.781500 3.171141
997.024200 -0.849507
997.267000 0.609847
997.509700 0.061518
997.752400 0.243593
997.995200 0.236905
998.237900 2.701568
998.480700 0.314080
998.723500 -2.800029
998.966200 -0.051579
999.209000 0.000000
999.451800 0.352613
999.694600 1.610742
999.937400 2.318063
1000.180200 -0.185706
1000.423000 0.347820
1000.665900 0.249937
1000.908700 -0.362713
1001.151500 -0.252007
1001.394400 0.732238
1001.637200 0.125180
1001.880100 -1.822822
1002.123000 0.440432
1002.365800 2.599883
1002.608700 -0.306707
1002.851600 1.080775
1003.094500 0.143360
1003.337400 -0.325341
1003.580300 -2.559907
1003.823200 -0.299356
1004.066100 2.945961
1004.309100 1.304358
1004.552000 0.154294
1004.794900 0.104848
1005.037900 0.329338
1005.280800 2.806180
1005.523800 0.086992
1005.766700 0.644024
1006.009700 0.164182
1006.252700 0.000000
1006.495700 -0.130086
1006.738700 -2.201397
1006.981700 0.237361
1007.224700 0.640375
1007.467700 -1.100303
1007.710700 0.033168
1007.953800 0.044381
1008.196800 -0.264904
1008.439800 0.537335
1008.682900 2.691965
1008.925900 0.809803
1009.169000 0.120053
1009.412100 -2.906335
1009.655100 -0.739588
1009.898200 -0.000676
1010.141300 2.432969
1010.384400 0.091671
1010.627500 0.636415
1010.870600 0.433656
1011.113700 0.609239
1011.356800 0.117771
1011.600000 -0.680777
1011.843100 0.163735
1012.086300 -2.845718
1012.329400 0.572958
1012.572600 0.000000
1012.815700 0.215702
1013.058900 -2.998259
1013.302100 0.301461
1013.545200 0.526377
1013.788400 0.733478
1014.031600 -2.664642
1014.274800 0.360852
1014.518000 1.044695
1014.761300 0.857390
1015.004500 -2.658011
1015.247700 -0.051595
1015.490900 -2.093422
1015.734200 0.260251
1015.977400 -0.363998
1016.220700 -3.118265
1016.464000 -0.129634
1016.707200 -0.984600
1016.950500 -0.385778
1017.193800 0.256671
1017.437100 -0.046233
1017.680400 -0.015874
1017.923700 2.975891
1018.167000 0.181345
1018.410300 2.643453
1018.653600 0.900977
1018.896900 0.014282
1019.140300 -0.038733
1019.383600 2.662758
1019.627000 0.313362
1019.870300 0.242666
1020.113700 0.276681
1020.357100 0.592917
1020.600400 0.016741
1020.843800 0.547433
1021.087200 0.351119
1021.330600 -2.914343
1021.574000 0.094426
1021.817400 0.000000
1022.060800 0.000000
1022.304200 0.000000
1022.547700 2.902003
1022.791100 1.733999
1023.034500 2.812913
