# Wavelength	Absorbance
197.780200 -0.145142
197.984200 2.907949
198.188200 3.093772
198.392200 2.682145
198.596300 0.119266
198.800300 2.318063
199.004400 1.295305
199.208500 0.840981
199.412600 2.776701
199.616800 0.489885
199.820900 -0.658469
200.025100 0.021823
200.229200 -0.741582
200.433400 3.008600
200.637600 0.341954
200.841800 1.102662
201.046100 3.008600
201.250300 0.863949
201.454600 3.220892
201.658900 3.051153
201.863100 -0.085509
202.067400 0.259363
202.271800 0.513988
202.476100 2.896526
202.680500 1.204120
202.884800 2.980458
203.089200 0.388225
203.293600 2.745075
203.498000 0.887978
203.702400 2.336460
203.906900 -1.121224
204.111300 -2.365488
204.315800 2.728354
204.520300 0.483174
204.724800 -0.380305
204.929300 2.396199
205.133800 -0.256088
205.338400 1.020861
205.543000 3.171434
205.747500 0.882805
205.952100 2.791691
206.156700 0.204682
206.361400 -2.801404
206.566000 2.187521
206.770600 0.264028
206.975300 -0.653457
207.180000 -2.092420
207.384700 -0.037601
207.589400 0.000000
207.794100 2.480007
207.998900 -0.480563
208.203600 3.152288
208.408400 0.469752
208.613200 2.820201
208.818000 2.495544
209.022800 -0.543113
209.227600 2.820201
209.432500 2.907949
209.637300 0.085363
209.842200 -0.609708
210.047100 -0.338703
210.252000 -1.063861
210.456900 -0.083315
210.661800 3.055378
210.866800 0.876942
211.071800 0.156563
211.276700 -0.050137
211.481700 2.736397
211.686700 -0.345266
211.891800 -0.424167
212.096800 0.287429
212.301800 0.966142
212.506900 0.137166
212.712000 -0.030840
212.917100 -0.042704
213.122200 0.094700
213.327300 0.057433
213.532500 0.000000
213.737600 -0.268638
213.942800 -1.369083
214.148000 -0.562237
214.353200 -2.365488
214.558400 0.677415
214.763600 3.265290
214.968900 -0.260628
215.174100 3.104487
215.379400 0.000000
215.584700 2.846955
215.790000 0.550311
215.995300 2.820201
216.200700 0.403059
216.406000 0.464252
216.611400 2.587711
216.816800 0.304868
217.022200 0.018032
217.227600 0.418907
217.433000 -0.400959
217.638400 0.877013
217.843900 -0.129243
218.049400 0.000000
218.254800 0.337563
218.460300 3.008600
218.665900 0.199455
218.871400 3.234517
219.076900 0.365026
219.282500 0.293493
219.488100 0.079259
219.693600 0.505150
219.899200 3.267641
220.104900 3.055378
220.310500 2.158362
220.516100 -2.958086
220.721800 1.072816
220.927500 0.746863
221.133200 2.902003
221.338900 -0.045921
221.544600 2.846955
221.750300 3.183555
221.956100 -0.060604
222.161800 -0.491490
222.367600 -0.034640
222.573400 2.643453
222.779200 -2.968016
222.985000 -2.646404
223.190900 -0.215545
223.396700 2.621176
223.602600 -0.391207
223.808500 0.089993
224.014400 2.853698
224.220300 -0.022579
224.426200 0.218272
224.632200 2.727541
224.838100 0.287277
225.044100 -0.427053
225.250100 0.625949
225.456100 2.653213
225.662100 2.632457
225.868100 2.127105
226.074200 2.632457
226.280200 0.000000
226.486300 2.846955
226.692400 0.000000
226.898500 3.101403
227.104600 -0.711143
227.310700 0.787652
227.516900 2.833784
227.723000 2.089905
227.929200 3.252853
228.135400 0.078305
228.341600 0.019070
228.547800 3.108227
228.754100 0.045805
228.960300 -0.119975
229.166600 0.000000
229.372900 -0.060067
229.579100 -0.275039
229.785500 2.791691
229.991800 -2.360377
230.198100 -0.332795
230.404500 -0.661525
230.610800 3.003891
230.817200 -2.555094
231.023600 0.060474
231.230000 0.758768
231.436400 0.526976
231.642900 2.718502
231.849300 -0.288575
232.055800 -0.747275
232.262300 0.364723
232.468800 1.959041
232.675300 -0.294944
232.881800 2.599883
233.088400 2.745075
233.294900 -0.387290
233.501500 0.977724
233.708100 0.000000
233.914700 2.710963
234.121300 0.000000
234.327900 2.776701
234.534600 2.682145
234.741300 0.017339
234.947900 -0.211527
235.154600 1.302396
235.361300 3.122544
235.568000 3.022016
235.774800 2.662758
235.981500 2.562293
236.188300 0.000000
236.395100 0.276932
236.601800 -2.915400
236.808700 0.205071
237.015500 0.221849
237.222300 0.929419
237.429200 3.265290
237.636000 3.042969
237.842900 1.851258
238.049800 -0.068665
238.256700 2.653213
238.463600 3.063333
238.670600 1.046532
238.877500 3.161967
239.084500 0.000000
239.291500 3.226342
239.498500 -0.510362
239.705500 -0.096120
239.912500 1.845098
240.119500 -1.111208
240.326600 -0.652901
240.533700 -1.322219
240.740700 2.621176
240.947800 -0.160418
241.154900 0.035521
241.362100 0.043394
241.569200 -0.210775
241.776400 -0.338329
241.983500 0.346153
242.190700 0.882543
242.397900 -1.924279
242.605100 0.066527
242.812400 2.587711
243.019600 3.242293
243.226900 2.710117
243.434100 -0.110380
243.641400 2.736397
243.848700 0.256962
244.056000 0.000000
244.263400 2.653213
244.470700 3.082785
244.678100 0.124340
244.885400 0.390374
245.092800 -0.314367
245.300200 -0.546240
245.507600 0.774913
245.715100 0.311995
245.922500 3.026125
246.130000 -1.415955
246.337500 3.183555
246.544900 -0.551724
246.752400 3.362859
246.960000 0.886491
247.167500 0.277855
247.375000 -2.501059
247.582600 0.524656
247.790200 -0.841538
247.997800 -0.179760
248.205400 0.938643
248.413000 2.872739
248.620600 0.198625
248.828300 0.547579
249.035900 3.030600
249.243600 0.078831
249.451300 3.282396
249.659000 3.192567
249.866700 3.168203
250.074500 3.226342
250.282200 1.085687
250.490000 0.354150
250.697800 0.017009
250.905600 -0.259565
251.113400 0.326785
251.321200 0.207480
251.529000 2.008600
251.736900 0.347590
251.944700 0.181064
252.152600 0.584581
252.360500 -0.304823
252.568400 0.161699
252.776300 -0.482874
252.984300 2.902003
253.192200 2.985426
253.400200 2.935003
253.608200 0.070966
253.816200 0.781336
254.024200 -0.303063
254.232200 -0.113943
254.440200 -2.579784
254.648300 2.769377
254.856400 2.701568
255.064400 0.338224
255.272500 0.119881
255.480600 3.104828
255.688800 0.000000
255.896900 -0.072582
256.105100 -0.003368
256.313200 2.752816
256.521400 -0.076805
256.729600 0.098859
256.937800 0.733683
257.146000 -0.066013
257.354300 0.000000
257.562500 3.204120
257.770800 0.000000
257.979100 1.572097
258.187400 -0.181156
258.395700 0.311198
258.604000 3.034628
258.812400 0.132327
259.020700 0.471030
259.229100 3.093772
259.437500 -0.072939
259.645900 0.727090
259.854300 2.878522
260.062700 0.402847
260.271100 2.621176
260.479600 3.097604
260.688100 2.562293
260.896500 0.673069
261.105000 2.089905
261.313500 -0.402488
261.522100 1.820483
261.730600 0.030561
261.939200 2.701568
262.147700 0.159948
262.356300 0.945734
262.564900 2.536558
262.773500 2.907411
262.982200 0.294208
263.190800 -2.103804
263.399500 0.291426
263.608100 0.182893
263.816800 -0.014202
264.025500 -0.206945
264.234200 -0.244758
264.442900 -0.669555
264.651700 0.254372
264.860400 0.637452
265.069200 0.448008
265.278000 0.086164
265.486800 0.071717
265.695600 -0.573415
265.904400 2.950851
266.113300 -0.171704
266.322100 0.562274
266.531000 -0.620934
266.739900 2.294466
266.948800 3.125806
267.157700 -0.239056
267.366600 3.055378
267.575500 -0.241262
267.784500 -0.172406
267.993500 2.994757
268.202400 0.945506
268.411400 0.282030
268.620500 1.438957
268.829500 -0.399827
269.038500 -0.891089
269.247600 0.110803
269.456600 0.209260
269.665700 0.436755
269.874800 -0.007988
270.083900 0.425326
270.293100 -2.324282
270.502200 -0.147215
270.711400 -0.476040
270.920500 2.833784
271.129700 2.985426
271.338900 0.234797
271.548100 2.691965
271.757300 1.105915
271.966600 2.890421
272.175800 1.654360
272.385100 3.132580
272.594400 -0.086093
272.803700 3.021603
273.013000 -0.056784
273.222300 0.272123
273.431600 0.799756
273.641000 0.885501
273.850400 2.701568
274.059700 0.299557
274.269100 3.209515
274.478500 2.950851
274.688000 3.183555
274.897400 2.866287
275.106900 1.591065
275.316300 0.128522
275.525800 -0.005547
275.735300 -3.232996
275.944800 2.965672
276.154300 0.492496
276.363900 0.044822
276.573400 2.840106
276.783000 -0.210130
276.992600 2.846955
277.202200 1.122996
277.411800 2.587711
277.621400 -0.102405
277.831000 1.796376
278.040700 3.177536
278.250300 2.820201
278.460000 1.011228
278.669700 2.980458
278.879400 -0.514954
279.089100 2.691965
279.298900 2.929930
279.508600 1.402466
279.718400 0.079089
279.928100 -2.843233
280.137900 0.218861
280.347700 2.632457
280.557600 -0.095959
280.767400 3.039017
280.977200 0.292373
281.187100 -1.322219
281.397000 3.089905
281.606900 -2.579784
281.816800 3.152288
282.026700 2.357935
282.236600 -0.012920
282.446600 0.423220
282.656500 0.000000
282.866500 2.791691
283.076500 0.014174
283.286500 3.115278
283.496500 3.030600
283.706500 2.907411
283.916600 0.428537
284.126600 -1.180208
284.336700 0.862338
284.546800 -0.427229
284.756900 0.057700
284.967000 2.896526
285.177100 0.186845
285.387300 -2.324282
285.597400 -0.261720
285.807600 2.127105
286.017800 0.118444
286.228000 -3.269046
286.438200 0.256034
286.648400 -0.139749
286.858700 0.338433
287.068900 0.436140
287.279200 2.846955
287.489500 -0.532950
287.699800 0.266314
287.910100 2.621176
288.120400 3.047275
288.330800 -0.502526
288.541100 0.536713
288.751500 0.895265
288.961900 0.146128
289.172300 -2.227887
289.382700 3.074816
289.593100 2.913284
289.803500 -2.324282
290.014000 0.293822
290.224500 -0.157509
290.434900 0.000000
290.645400 -0.304233
290.855900 2.653213
291.066500 -0.004628
291.277000 0.516406
291.487500 0.188855
291.698100 0.489885
291.908700 2.338456
292.119300 0.242943
292.329900 3.042969
292.540500 2.728354
292.751100 -0.174487
292.961800 0.000000
293.172400 3.171434
293.383100 0.000000
293.593800 0.766870
293.804500 -0.005515
294.015200 0.065058
294.226000 -2.625312
294.436700 2.799341
294.647500 -0.315556
294.858200 3.074816
295.069000 3.055378
295.279800 0.089993
295.490600 0.000000
295.701500 -0.146290
295.912300 3.082785
296.123200 3.247728
296.334000 2.719331
296.544900 0.515405
296.755800 0.449305
296.966700 1.072816
297.177700 0.920655
297.388600 0.019603
297.599500 -0.787392
297.810500 3.090258
298.021500 3.149219
298.232500 0.159128
298.443500 -1.014812
298.654500 0.597753
298.865600 3.125806
299.076600 -0.100420
299.287700 0.000000
299.498800 0.213905
299.709900 0.085762
299.921000 3.234517
300.132100 0.392216
300.343200 1.346167
300.554400 -0.002210
300.765500 -0.357422
300.976700 0.000000
301.187900 0.381853
301.399100 0.090947
301.610300 -0.058435
301.821500 0.359129
302.032800 0.274540
302.244100 3.017451
302.455300 0.732116
302.666600 3.063333
302.877900 0.044498
303.089200 0.033652
303.300600 0.844295
303.511900 0.114687
303.723300 0.369185
303.934600 0.859489
304.146000 -1.956306
304.357400 -0.647296
304.568800 0.160319
304.780300 3.192289
304.991700 -0.508524
305.203100 -1.006912
305.414600 3.198382
305.626100 -0.620934
305.837600 1.030862
306.049100 2.775974
306.260600 0.328519
306.472200 0.141709
306.683700 2.945961
306.895300 0.137437
307.106900 0.702808
307.318400 3.034628
307.530100 0.069726
307.741700 2.806180
307.953300 3.332236
308.165000 0.000000
308.376600 1.239984
308.588300 0.771001
308.800000 3.034227
309.011700 3.215109
309.223400 1.803587
309.435100 2.450249
309.646900 2.840106
309.858600 0.299121
310.070400 0.213645
310.282200 1.447158
310.494000 0.431005
310.705800 3.168203
310.917600 3.047275
311.129500 2.840106
311.341300 3.296446
311.553200 3.180413
311.765100 3.139249
311.977000 3.142702
312.188900 0.107603
312.400800 3.030600
312.612700 0.290203
312.824700 0.365178
313.036600 0.290321
313.248600 3.332034
313.460600 2.999565
313.672600 3.275081
313.884600 0.021528
314.096700 2.599883
314.308700 1.038211
314.520800 0.399820
314.732800 1.232515
314.944900 3.146128
315.157000 0.623287
315.369200 3.082785
315.581300 0.239553
315.793400 2.653213
316.005600 0.725283
316.217700 3.168203
316.429900 0.349373
316.642100 3.168203
316.854300 3.093772
317.066600 3.463445
317.278800 0.439416
317.491100 3.192289
317.703300 3.336260
317.915600 0.524858
318.127900 0.820447
318.340200 -0.046658
318.552500 0.206442
318.764900 1.817030
318.977200 3.437592
319.189600 1.707975
319.401900 0.459308
319.614300 3.245019
319.826700 0.143459
320.039200 0.443486
320.251600 0.365894
320.464000 0.480135
320.676500 0.287566
320.889000 0.027632
321.101400 0.246112
321.313900 0.031515
321.526500 3.516800
321.739000 0.973456
321.951500 1.302641
322.164100 3.132580
322.376600 0.792994
322.589200 3.362859
322.801800 3.327767
323.014400 3.360972
323.227000 2.032657
323.439700 3.437433
323.652300 0.784655
323.865000 0.771604
324.077700 0.543168
324.290400 3.310268
324.503100 3.378580
324.715800 1.295351
324.928500 0.521523
325.141200 0.416158
325.354000 1.355879
325.566800 3.389875
325.779600 1.207707
325.992400 0.527958
326.205200 1.104826
326.418000 3.474362
326.630800 3.581495
326.843700 3.659250
327.056600 0.315540
327.269400 3.416973
327.482300 3.531990
327.695200 3.385964
327.908200 0.615744
328.121100 0.748922
328.334000 1.930876
328.547000 3.636688
328.760000 0.780066
328.973000 0.434720
329.186000 3.564311
329.399000 1.420610
329.612000 1.690363
329.825100 3.485153
330.038100 0.665889
330.251200 1.773531
330.464300 1.011894
330.677400 3.635484
330.890500 0.563850
331.103600 3.526469
331.316700 3.641970
331.529900 1.430411
331.743100 3.583879
331.956200 3.661339
332.169400 1.022742
332.382600 0.480274
332.595900 3.740600
332.809100 1.024982
333.022300 1.066690
333.235600 1.053685
333.448900 0.479433
333.662200 3.609381
333.875500 3.666331
334.088800 3.518251
334.302100 3.740521
334.515400 2.324870
334.728800 3.641871
334.942200 0.959503
335.155500 1.476437
335.368900 3.756864
335.582300 1.015566
335.795800 1.449081
336.009200 0.900590
336.222700 3.666237
336.436100 1.078854
336.649600 3.795949
336.863100 0.717967
337.076600 0.677119
337.290100 1.462634
337.503600 1.501836
337.717200 0.801204
337.930700 1.193799
338.144300 0.854180
338.357900 3.656290
338.571500 0.767746
338.785100 3.703205
338.998700 0.952979
339.212400 3.815312
339.426000 3.712144
339.639700 3.667266
339.853300 3.765594
340.067000 3.741388
340.280700 0.491667
340.494500 3.790074
340.708200 3.745543
340.921900 3.796644
341.135700 3.715669
341.349500 1.452513
341.563300 0.813811
341.777100 3.818094
341.990900 3.831166
342.204700 1.588156
342.418500 1.013107
342.632400 3.830460
342.846300 1.310247
343.060100 0.876782
343.274000 0.729518
343.487900 1.100161
343.701900 3.795185
343.915800 1.291962
344.129700 3.873611
344.343700 1.978666
344.557700 0.959972
344.771700 1.254600
344.985700 1.010327
345.199700 3.834484
345.413700 3.908914
345.627700 0.953385
345.841800 3.870521
346.055900 3.854124
346.269900 3.868644
346.484000 3.898615
346.698100 3.825686
346.912300 3.850340
347.126400 3.906012
347.340600 1.370247
347.554700 0.773348
347.768900 1.181314
347.983100 1.440998
348.197300 3.889246
348.411500 2.081530
348.625700 0.985946
348.840000 1.082374
349.054200 1.057441
349.268500 0.650558
349.482800 3.888011
349.697100 1.483884
349.911400 3.877832
350.125700 3.910571
350.340000 3.937869
350.554400 0.997985
350.768700 1.173234
350.983100 1.338037
351.197500 0.865582
351.411900 3.984437
351.626300 2.331668
351.840700 3.963032
352.055200 3.931966
352.269600 3.959471
352.484100 1.046677
352.698600 1.665790
352.913100 0.808721
353.127600 1.346944
353.342100 1.055615
353.556600 1.308077
353.771200 4.007534
353.985800 0.632313
354.200300 2.307649
354.414900 1.480034
354.629500 1.679256
354.844100 3.994273
355.058800 1.325475
355.273400 1.946063
355.488100 3.989138
355.702700 3.991448
355.917400 3.938920
356.132100 1.990222
356.346800 3.982000
356.561500 1.336911
356.776300 3.974327
356.991000 1.123078
357.205800 3.987264
357.420600 1.000983
357.635300 3.982045
357.850100 1.295983
358.065000 1.412151
358.279800 0.984037
358.494600 1.091350
358.709500 1.483963
358.924300 0.895534
359.139200 1.636095
359.354100 1.362890
359.569000 1.251660
359.783900 3.987264
359.998900 3.957464
360.213800 1.416802
360.428800 4.072617
360.643800 1.379353
360.858700 1.489654
361.073700 1.113192
361.288800 0.672185
361.503800 4.026452
361.718800 3.995196
361.933900 1.128510
362.148900 1.029647
362.364000 1.238838
362.579100 2.263505
362.794200 0.893070
363.009300 1.179599
363.224500 1.127032
363.439600 0.928762
363.654800 4.034989
363.869900 1.031653
364.085100 4.019947
364.300300 4.010681
364.515500 4.049102
364.730800 1.340211
364.946000 1.118090
365.161200 4.048325
365.376500 1.346787
365.591800 0.872961
365.807100 1.440619
366.022400 1.200323
366.237700 4.078022
366.453000 1.647271
366.668400 1.985571
366.883700 2.038328
367.099100 1.497839
367.314500 1.506184
367.529900 2.312191
367.745300 0.876381
367.960700 4.089375
368.176100 1.865185
368.391600 4.101850
368.607000 1.318063
368.822500 4.111901
369.038000 0.749980
369.253500 1.284164
369.469000 4.123721
369.684500 1.088144
369.900100 0.993633
370.115600 4.067926
370.331200 4.097847
370.546800 2.480760
370.762400 4.131266
370.978000 4.107990
371.193600 4.104351
371.409200 4.124798
371.624900 1.268058
371.840500 1.325004
372.056200 1.080731
372.271900 1.600069
372.487600 4.180183
372.703300 1.181992
372.919000 1.114668
373.134800 4.137671
373.350500 4.133635
373.566300 2.129331
373.782000 4.160709
373.997800 4.169498
374.213600 1.127335
374.429400 4.167613
374.645300 2.034645
374.861100 4.167317
375.077000 1.421147
375.292800 1.065389
375.508700 1.254155
375.724600 4.210586
375.940500 4.218404
376.156400 1.331804
376.372400 1.185463
376.588300 1.939913
376.804300 1.654936
377.020300 4.247581
377.236200 1.234662
377.452200 4.269816
377.668200 1.460216
377.884300 1.488770
378.100300 1.451862
378.316400 4.291879
378.532400 4.271028
378.748500 1.385956
378.964600 2.689203
379.180700 1.321174
379.396800 1.562314
379.612900 1.722767
379.829100 1.235776
380.045200 4.285760
380.261400 1.357905
380.477600 1.739302
380.693800 4.279302
380.910000 4.341138
381.126200 1.515587
381.342400 1.351944
381.558700 1.094066
381.774900 4.288607
381.991200 4.304318
382.207500 1.543080
382.423800 1.361330
382.640100 1.654917
382.856400 4.341336
383.072800 1.532750
383.289100 1.193888
383.505500 4.335458
383.721900 1.469628
383.938200 4.339471
384.154600 4.345099
384.371100 1.782684
384.587500 2.178530
384.803900 1.256974
385.020400 1.150034
385.236800 1.669696
385.453300 1.436790
385.669800 1.811785
385.886300 1.780961
386.102800 1.209363
386.319400 1.631878
386.535900 1.269196
386.752500 1.072820
386.969000 1.812578
387.185600 4.362124
387.402200 1.304692
387.618800 1.343668
387.835500 1.202675
388.052100 1.248046
388.268700 1.268300
388.485400 1.220916
388.702100 1.176609
388.918800 1.251625
389.135500 1.147117
389.352200 1.496208
389.568900 1.010594
389.785600 1.100037
390.002400 1.162999
390.219200 1.155212
390.435900 1.136901
390.652700 1.139623
390.869500 1.780660
391.086300 1.190332
391.303200 1.030624
391.520000 1.078544
391.736900 0.958969
391.953700 1.115081
392.170600 0.913677
392.387500 0.802535
392.604400 1.039719
392.821300 0.814441
393.038300 0.990566
393.255200 0.963549
393.472200 1.177591
393.689100 0.781682
393.906100 0.937775
394.123100 0.829021
394.340100 0.891474
394.557200 0.942115
394.774200 0.824058
394.991200 0.788404
395.208300 0.801904
395.425400 0.758485
395.642500 0.779069
395.859600 0.759867
396.076700 0.706970
396.293800 0.751612
396.510900 0.688208
396.728100 0.679285
396.945300 0.794009
397.162400 0.675579
397.379600 0.694254
397.596800 0.793584
397.814000 0.731660
398.031300 0.728146
398.248500 0.639662
398.465800 0.740800
398.683000 0.659176
398.900300 0.678343
399.117600 0.624034
399.334900 0.631042
399.552200 0.585153
399.769600 0.608676
399.986900 0.663768
400.204300 0.574018
400.421600 0.585280
400.639000 0.640848
400.856400 0.676755
401.073800 0.567782
401.291200 0.552538
401.508700 0.487658
401.726100 0.567169
401.943600 0.500620
402.161000 0.553150
402.378500 0.481247
402.596000 0.511014
402.813500 0.525751
403.031000 0.482852
403.248600 0.524729
403.466100 0.504225
403.683700 0.538309
403.901300 0.525753
404.118900 0.414707
404.336500 0.464982
404.554100 0.405301
404.771700 0.482806
404.989300 0.431301
405.207000 0.492345
405.424600 0.461986
405.642300 0.429152
405.860000 0.469910
406.077700 0.504472
406.295400 0.393323
406.513100 0.396964
406.730900 0.401204
406.948600 0.446923
407.166400 0.449231
407.384200 0.378172
407.602000 0.403198
407.819800 0.388345
408.037600 0.432276
408.255400 0.425817
408.473300 0.404741
408.691100 0.372227
408.909000 0.371801
409.126900 0.378190
409.344800 0.398553
409.562700 0.382153
409.780600 0.384902
409.998500 0.395569
410.216500 0.328439
410.434400 0.322327
410.652400 0.336375
410.870400 0.364916
411.088400 0.307966
411.306400 0.381630
411.524400 0.352410
411.742400 0.327868
411.960500 0.358563
412.178500 0.350210
412.396600 0.391542
412.614700 0.315529
412.832800 0.304743
413.050900 0.357868
413.269000 0.306538
413.487100 0.320674
413.705300 0.338641
413.923400 0.350662
414.141600 0.293484
414.359800 0.318905
414.578000 0.325780
414.796200 0.304391
415.014400 0.308867
415.232600 0.298504
415.450900 0.279574
415.669200 0.268610
415.887400 0.316355
416.105700 0.295863
416.324000 0.334946
416.542300 0.282936
416.760600 0.283242
416.979000 0.298956
417.197300 0.274774
417.415700 0.272704
417.634100 0.291084
417.852400 0.292599
418.070800 0.342284
418.289300 0.284362
418.507700 0.302619
418.726100 0.255411
418.944600 0.272761
419.163000 0.322111
419.381500 0.252041
419.600000 0.236305
419.818500 0.256896
420.037000 0.272682
420.255500 0.272441
420.474100 0.270927
420.692600 0.285959
420.911200 0.245991
421.129800 0.285987
421.348300 0.257203
421.566900 0.244777
421.785600 0.260940
422.004200 0.237029
422.222800 0.221623
422.441500 0.253341
422.660100 0.239845
422.878800 0.266437
423.097500 0.257376
423.316200 0.249025
423.534900 0.225006
423.753600 0.270907
423.972400 0.243364
424.191100 0.241396
424.409900 0.254691
424.628700 0.236368
424.847500 0.247305
425.066300 0.272676
425.285100 0.262591
425.503900 0.255502
425.722800 0.251629
425.941600 0.246332
426.160500 0.231137
426.379300 0.220808
426.598200 0.250412
426.817100 0.215761
427.036100 0.265604
427.255000 0.240379
427.473900 0.250430
427.692900 0.263710
427.911800 0.236576
428.130800 0.259032
428.349800 0.244644
428.568800 0.224869
428.787800 0.229774
429.006800 0.258904
429.225900 0.215287
429.444900 0.216995
429.664000 0.201062
429.883100 0.246965
430.102200 0.213791
430.321300 0.243175
430.540400 0.236399
430.759500 0.228618
430.978700 0.228423
431.197800 0.272127
431.417000 0.202650
431.636200 0.265035
431.855300 0.244041
432.074500 0.222170
432.293800 0.218095
432.513000 0.255641
432.732200 0.235383
432.951500 0.248498
433.170700 0.239316
433.390000 0.255231
433.609300 0.299002
433.828600 0.251106
434.047900 0.252307
434.267300 0.266146
434.486600 0.229545
434.705900 0.224564
434.925300 0.232329
435.144700 0.186627
435.364100 0.244355
435.583500 0.234114
435.802900 0.256159
436.022300 0.243905
436.241800 0.228468
436.461200 0.246445
436.680700 0.253189
436.900100 0.266844
437.119600 0.231296
437.339100 0.218599
437.558600 0.257397
437.778200 0.232171
437.997700 0.255499
438.217300 0.252174
438.436800 0.240372
438.656400 0.276460
438.876000 0.229273
439.095600 0.235298
439.315200 0.260515
439.534800 0.245846
439.754500 0.249505
439.974100 0.306943
440.193800 0.279596
440.413500 0.280197
440.633100 0.252528
440.852800 0.262454
441.072500 0.275668
441.292300 0.262303
441.512000 0.278867
441.731800 0.284212
441.951500 0.255505
442.171300 0.255156
442.391100 0.249008
442.610900 0.275901
442.830700 0.256702
443.050500 0.260824
443.270300 0.274408
443.490200 0.286014
443.710100 0.297339
443.929900 0.269289
444.149800 0.267346
444.369700 0.298895
444.589600 0.252637
444.809500 0.329641
445.029500 0.294688
445.249400 0.288202
445.469400 0.332627
445.689400 0.282332
445.909300 0.285319
446.129300 0.300178
446.349300 0.301636
446.569400 0.301022
446.789400 0.302569
447.009400 0.327928
447.229500 0.329311
447.449600 0.295467
447.669600 0.308589
447.889700 0.325574
448.109800 0.285778
448.330000 0.283595
448.550100 0.325224
448.770200 0.318786
448.990400 0.310853
449.210600 0.311063
449.430700 0.343727
449.650900 0.312578
449.871100 0.342877
450.091400 0.350827
450.311600 0.367749
450.531800 0.310113
450.752100 0.306889
450.972400 0.317291
451.192600 0.338767
451.412900 0.312348
451.633200 0.349195
451.853500 0.339550
452.073900 0.325837
452.294200 0.377422
452.514600 0.320817
452.734900 0.353520
452.955300 0.360891
453.175700 0.367113
453.396100 0.363894
453.616500 0.317721
453.836900 0.373019
454.057400 0.361807
454.277800 0.376453
454.498300 0.381419
454.718800 0.365239
454.939300 0.364912
455.159700 0.350540
455.380300 0.382480
455.600800 0.349075
455.821300 0.383848
456.041900 0.381093
456.262400 0.410604
456.483000 0.380278
456.703600 0.342631
456.924200 0.407070
457.144800 0.387580
457.365400 0.423330
457.586000 0.407034
457.806700 0.385455
458.027400 0.417876
458.248000 0.429424
458.468700 0.471048
458.689400 0.406353
458.910100 0.443205
459.130800 0.401206
459.351600 0.436346
459.572300 0.440078
459.793100 0.432483
460.013800 0.415709
460.234600 0.418773
460.455400 0.482130
460.676200 0.450276
460.897000 0.417167
461.117800 0.451608
461.338700 0.459818
461.559500 0.478131
461.780400 0.446685
462.001300 0.465020
462.222200 0.421417
462.443100 0.463533
462.664000 0.434186
462.884900 0.446776
463.105900 0.457709
463.326800 0.500113
463.547800 0.480445
463.768700 0.465468
463.989700 0.510117
464.210700 0.493401
464.431700 0.493783
464.652800 0.534188
464.873800 0.556722
465.094800 0.545591
465.315900 0.569128
465.537000 0.576628
465.758100 0.532952
465.979200 0.529517
466.200300 0.524012
466.421400 0.531933
466.642500 0.582465
466.863700 0.514666
467.084800 0.569638
467.306000 0.562095
467.527200 0.553590
467.748400 0.597202
467.969600 0.607127
468.190800 0.604864
468.412000 0.562147
468.633300 0.583005
468.854500 0.607966
469.075800 0.532441
469.297000 0.583472
469.518300 0.624208
469.739600 0.706136
469.961000 0.551014
470.182300 0.588322
470.403600 0.585705
470.625000 0.647050
470.846300 0.653754
471.067700 0.632346
471.289100 0.645014
471.510500 0.623212
471.731900 0.607118
471.953300 0.672956
472.174800 0.654690
472.396200 0.720642
472.617700 0.736080
472.839100 0.699079
473.060600 0.617404
473.282100 0.714058
473.503600 0.683996
473.725100 0.720456
473.946700 0.693704
474.168200 0.693754
474.389800 0.737910
474.611300 0.689850
474.832900 0.649403
475.054500 0.740710
475.276100 0.810957
475.497700 0.809011
475.719300 0.771579
475.941000 0.795319
476.162600 0.787538
476.384300 0.729082
476.606000 0.685082
476.827700 0.817603
477.049400 0.786699
477.271100 0.892046
477.492800 0.795379
477.714500 0.829423
477.936300 0.772011
478.158000 0.823867
478.379800 0.826513
478.601600 0.791161
478.823400 0.815723
479.045200 0.857122
479.267000 0.766110
479.488800 0.816107
479.710700 0.736038
479.932500 0.890102
480.154400 0.816549
480.376300 0.913078
480.598200 0.869490
480.820100 0.866573
481.042000 0.779014
481.263900 0.801342
481.485900 0.829708
481.707800 0.822437
481.929800 0.809668
482.151700 0.876203
482.373700 0.834350
482.595700 0.879464
482.817700 0.843534
483.039800 0.916324
483.261800 0.906740
483.483800 0.911261
483.705900 0.932958
483.928000 0.950834
484.150100 1.030848
484.372100 0.971137
484.594300 0.876577
484.816400 0.897335
485.038500 0.948251
485.260600 0.896241
485.482800 1.026665
485.705000 0.933809
485.927100 0.993515
486.149300 0.993252
486.371500 0.984732
486.593700 0.968562
486.816000 1.027866
487.038200 1.039691
487.260500 0.985020
487.482700 0.954655
487.705000 0.901404
487.927300 1.087333
488.149600 0.993299
488.371900 1.069728
488.594200 1.021327
488.816500 1.089379
489.038900 0.921785
489.261200 1.103377
489.483600 0.937858
489.706000 1.035862
489.928400 1.156342
490.150800 1.150359
490.373200 1.119706
490.595600 1.101703
490.818000 1.159350
491.040500 1.132435
491.263000 0.975583
491.485400 1.081246
491.707900 0.863309
491.930400 1.073602
492.152900 1.045239
492.375500 1.169267
492.598000 1.082772
492.820500 1.191431
493.043100 1.097251
493.265700 1.153345
493.488200 0.971547
493.710800 1.102188
493.933400 1.015590
494.156100 1.080300
494.378700 1.049480
494.601300 1.170459
494.824000 1.365394
495.046600 1.145312
495.269300 1.077669
495.492000 1.100339
495.714700 1.064139
495.937400 1.137128
496.160100 1.046990
496.382900 1.162795
496.605600 1.015242
496.828400 1.123842
497.051100 1.352549
497.273900 1.146798
497.496700 1.181162
497.719500 1.086747
497.942300 1.058371
498.165200 1.146111
498.388000 1.042589
498.610900 1.229822
498.833700 1.036910
499.056600 1.307564
499.279500 1.097956
499.502400 1.147133
499.725300 1.242838
499.948200 1.063098
500.171200 1.194560
500.394100 1.255718
500.617100 1.146569
500.840000 1.283572
501.063000 1.136180
501.286000 1.205482
501.509000 1.189094
501.732000 1.339593
501.955100 1.119901
502.178100 1.338843
502.401200 1.225559
502.624200 1.304897
502.847300 1.099312
503.070400 1.386505
503.293500 1.172053
503.516600 1.216972
503.739700 1.171701
503.962800 1.305893
504.186000 1.509341
504.409200 1.278497
504.632300 1.129324
504.855500 1.367336
505.078700 1.305791
505.301900 1.178354
505.525100 1.377882
505.748300 1.369577
505.971600 1.370818
506.194800 1.393755
506.418100 1.225247
506.641400 1.162987
506.864700 1.337706
507.088000 1.113066
507.311300 1.180892
507.534600 1.198910
507.757900 1.112133
507.981300 1.310706
508.204600 1.187669
508.428000 1.098912
508.651400 1.090859
508.874800 1.279556
509.098200 1.098009
509.321600 1.386437
509.545000 1.032342
509.768500 1.144390
509.991900 1.357225
510.215400 1.360735
510.438800 1.235391
510.662300 1.457205
510.885800 1.360316
511.109300 1.029198
511.332900 1.021799
511.556400 1.490778
511.779900 1.405943
512.003500 1.187300
512.227000 1.174183
512.450600 1.077068
512.674200 1.202206
512.897800 1.400078
513.121400 1.146128
513.345100 1.297381
513.568700 1.276916
513.792300 1.133110
514.016000 1.214313
514.239700 1.317143
514.463400 1.195652
514.687100 1.163699
514.910800 1.068883
515.134500 1.198507
515.358200 0.909107
515.581900 1.366439
515.805700 1.199466
516.029500 1.127967
516.253200 1.092218
516.477000 1.204060
516.700800 1.056149
516.924600 1.172956
517.148500 1.099320
517.372300 1.189613
517.596100 1.317125
517.820000 1.538041
518.043900 1.109724
518.267700 1.405722
518.491600 0.961164
518.715500 1.161592
518.939500 1.316721
519.163400 1.196380
519.387300 1.060425
519.611300 1.157106
519.835200 1.144006
520.059200 1.121360
520.283200 1.175125
520.507200 1.173261
520.731200 1.100522
520.955200 0.946902
521.179200 1.155672
521.403300 0.940063
521.627300 1.242359
521.851400 1.099192
522.075500 0.915699
522.299600 0.907255
522.523700 1.151675
522.747800 0.988554
522.971900 1.104000
523.196000 1.117592
523.420200 1.138216
523.644300 1.054112
523.868500 0.977527
524.092700 1.069510
524.316900 1.005346
524.541100 1.182462
524.765300 1.102016
524.989500 0.930933
525.213800 1.047987
525.438000 0.935997
525.662300 0.960063
525.886500 0.873880
526.110800 0.989721
526.335100 0.854978
526.559400 0.888512
526.783700 1.034498
527.008100 1.075419
527.232400 0.950666
527.456800 1.002510
527.681100 1.027190
527.905500 0.950194
528.129900 0.861169
528.354300 0.973076
528.578700 0.912530
528.803100 0.987299
529.027600 0.941027
529.252000 0.942985
529.476500 0.881606
529.700900 0.884987
529.925400 0.776107
530.149900 0.999898
530.374400 0.854020
530.598900 0.899697
530.823400 0.825558
531.048000 0.834609
531.272500 0.854324
531.497100 0.907350
531.721700 0.855407
531.946200 0.871497
532.170800 0.851628
532.395400 0.773370
532.620000 0.891859
532.844700 0.887901
533.069300 0.854472
533.294000 0.778131
533.518600 0.825381
533.743300 0.775531
533.968000 0.781948
534.192700 0.751302
534.417400 0.741129
534.642100 0.873058
534.866800 0.727726
535.091600 0.758652
535.316300 0.755542
535.541100 0.744322
535.765900 0.754031
535.990700 0.698156
536.215500 0.653436
536.440300 0.761831
536.665100 0.702234
536.889900 0.750520
537.114800 0.753930
537.339600 0.691310
537.564500 0.716078
537.789400 0.680449
538.014300 0.704508
538.239200 0.640701
538.464100 0.717502
538.689000 0.669997
538.913900 0.674962
539.138900 0.677459
539.363800 0.671747
539.588800 0.709135
539.813800 0.689565
540.038800 0.677235
540.263800 0.643809
540.488800 0.676411
540.713800 0.593084
540.938900 0.590721
541.163900 0.680582
541.389000 0.671118
541.614000 0.588595
541.839100 0.624934
542.064200 0.583425
542.289300 0.634145
542.514400 0.641685
542.739600 0.676665
542.964700 0.597086
543.189900 0.549150
543.415000 0.583858
543.640200 0.544406
543.865400 0.600224
544.090600 0.539439
544.315800 0.558909
544.541000 0.581535
544.766200 0.551577
544.991500 0.581387
545.216700 0.552235
545.442000 0.601209
545.667300 0.523254
545.892600 0.497763
546.117900 0.495234
546.343200 0.566095
546.568500 0.491619
546.793800 0.522562
547.019200 0.523810
547.244500 0.484324
547.469900 0.403306
547.695300 0.479558
547.920600 0.468915
548.146000 0.500505
548.371500 0.422972
548.596900 0.476537
548.822300 0.468963
549.047800 0.432708
549.273200 0.447740
549.498700 0.410271
549.724200 0.437032
549.949600 0.448053
550.175100 0.394577
550.400700 0.389435
550.626200 0.417377
550.851700 0.384109
551.077300 0.419681
551.302800 0.399902
551.528400 0.368426
551.754000 0.390610
551.979600 0.409814
552.205200 0.386792
552.430800 0.408403
552.656400 0.374952
552.882000 0.395051
553.107700 0.406395
553.333300 0.386059
553.559000 0.382095
553.784700 0.357352
554.010400 0.409638
554.236100 0.376242
554.461800 0.344917
554.687500 0.361866
554.913200 0.344425
555.139000 0.297089
555.364800 0.370818
555.590500 0.322868
555.816300 0.313952
556.042100 0.305059
556.267900 0.316698
556.493700 0.327198
556.719500 0.317304
556.945400 0.299805
557.171200 0.293585
557.397100 0.286492
557.623000 0.302410
557.848800 0.260064
558.074700 0.279418
558.300600 0.297046
558.526600 0.278324
558.752500 0.279030
558.978400 0.269634
559.204400 0.246724
559.430300 0.254378
559.656300 0.240154
559.882300 0.227129
560.108300 0.252705
560.334300 0.245881
560.560300 0.259779
560.786300 0.254078
561.012400 0.260338
561.238400 0.246255
561.464500 0.239938
561.690500 0.251798
561.916600 0.232426
562.142700 0.245572
562.368800 0.245339
562.594900 0.250639
562.821100 0.232111
563.047200 0.226943
563.273300 0.196759
563.499500 0.194575
563.725700 0.231395
563.951900 0.204815
564.178100 0.194872
564.404300 0.202851
564.630500 0.205485
564.856700 0.237233
565.082900 0.182943
565.309200 0.207427
565.535500 0.184767
565.761700 0.192273
565.988000 0.174636
566.214300 0.177958
566.440600 0.150370
566.666900 0.191025
566.893200 0.200170
567.119600 0.167758
567.345900 0.178253
567.572300 0.188755
567.798700 0.147429
568.025000 0.164952
568.251400 0.184581
568.477800 0.160108
568.704300 0.173042
568.930700 0.170176
569.157100 0.145482
569.383600 0.152786
569.610000 0.155598
569.836500 0.153078
570.063000 0.140415
570.289500 0.162626
570.516000 0.155542
570.742500 0.139634
570.969000 0.152795
571.195600 0.147586
571.422100 0.138630
571.648700 0.139066
571.875200 0.139190
572.101800 0.144521
572.328400 0.137857
572.555000 0.124060
572.781600 0.129771
573.008200 0.132620
573.234900 0.144337
573.461500 0.125831
573.688200 0.121084
573.914900 0.124598
574.141500 0.119956
574.368200 0.119953
574.594900 0.114024
574.821600 0.111847
575.048400 0.120183
575.275100 0.120801
575.501800 0.112191
575.728600 0.107241
575.955400 0.112037
576.182100 0.120349
576.408900 0.113339
576.635700 0.112190
576.862600 0.111222
577.089400 0.100129
577.316200 0.085217
577.543100 0.106933
577.769900 0.092655
577.996800 0.109103
578.223700 0.095795
578.450500 0.084226
578.677400 0.093570
578.904400 0.090385
579.131300 0.095223
579.358200 0.078359
579.585100 0.083616
579.812100 0.080826
580.039100 0.082600
580.266000 0.074375
580.493000 0.076935
580.720000 0.078804
580.947000 0.070779
581.174100 0.078534
581.401100 0.075200
581.628100 0.075067
581.855200 0.067793
582.082200 0.070882
582.309300 0.075097
582.536400 0.065062
582.763500 0.068550
582.990600 0.057615
583.217700 0.058850
583.444900 0.056750
583.672000 0.061919
583.899100 0.069950
584.126300 0.051721
584.353500 0.051827
584.580700 0.058384
584.807900 0.072267
585.035100 0.067134
585.262300 0.066443
585.489500 0.066671
585.716700 0.058445
585.944000 0.059001
586.171300 0.063089
586.398500 0.058460
586.625800 0.053270
586.853100 0.050278
587.080400 0.049370
587.307700 0.040828
587.535000 0.047890
587.762400 0.044295
587.989700 0.042188
588.217100 0.048276
588.444500 0.046844
588.671800 0.042330
588.899200 0.047544
589.126600 0.047149
589.354000 0.052919
589.581500 0.041118
589.808900 0.042959
590.036300 0.049213
590.263800 0.039087
590.491300 0.039397
590.718700 0.038445
590.946200 0.037777
591.173700 0.038146
591.401200 0.051518
591.628800 0.050365
591.856300 0.033231
592.083800 0.036053
592.311400 0.028816
592.538900 0.037601
592.766500 0.050182
592.994100 0.042643
593.221700 0.048306
593.449300 0.049290
593.676900 0.037948
593.904600 0.040528
594.132200 0.034353
594.359800 0.033583
594.587500 0.041759
594.815200 0.036608
595.042900 0.037127
595.270500 0.037416
595.498300 0.028066
595.726000 0.039692
595.953700 0.029864
596.181400 0.036304
596.409200 0.034003
596.636900 0.043231
596.864700 0.039377
597.092500 0.036046
597.320300 0.033822
597.548100 0.044563
597.775900 0.040080
598.003700 0.026699
598.231500 0.039624
598.459400 0.032884
598.687200 0.038380
598.915100 0.037887
599.143000 0.040412
599.370900 0.028621
599.598800 0.034261
599.826700 0.032287
600.054600 0.036556
600.282500 0.032502
600.510500 0.017589
600.738400 0.028462
600.966400 0.022829
601.194400 0.028704
601.422300 0.012022
601.650300 0.016047
601.878300 0.018046
602.106400 0.020642
602.334400 0.026263
602.562400 0.041138
602.790500 0.030354
603.018500 0.024774
603.246600 0.035169
603.474700 0.040380
603.702800 0.022234
603.930900 0.032610
604.159000 0.032447
604.387100 0.033254
604.615200 0.019777
604.843400 0.014274
605.071500 0.028680
605.299700 0.025660
605.527900 0.021225
605.756100 0.014608
605.984300 0.020406
606.212500 0.007732
606.440700 0.001636
606.668900 0.012776
606.897200 0.008731
607.125400 0.008503
607.353700 0.017605
607.581900 0.026392
607.810200 0.002407
608.038500 0.013642
608.266800 0.017709
608.495100 0.008413
608.723500 0.000697
608.951800 0.015731
609.180100 0.007002
609.408500 0.010630
609.636900 0.003545
609.865300 0.005732
610.093600 0.014331
610.322000 0.015132
610.550500 0.010374
610.778900 0.019293
611.007300 0.020100
611.235700 0.018861
611.464200 0.024458
611.692700 0.008791
611.921100 0.008867
612.149600 0.022655
612.378100 0.020584
612.606600 0.017100
612.835100 0.026025
613.063700 0.008363
613.292200 0.022435
613.520800 0.015173
613.749300 0.015446
613.977900 0.028119
614.206500 0.016337
614.435100 0.028515
614.663700 0.025617
614.892300 0.013094
615.120900 0.000061
615.349500 0.022682
615.578200 0.018557
615.806800 0.025779
616.035500 0.016921
616.264200 0.012137
616.492900 0.020119
616.721600 0.005051
616.950300 -0.005747
617.179000 0.004714
617.407700 0.002075
617.636500 0.008308
617.865200 0.006649
618.094000 0.000799
618.322700 0.004581
618.551500 0.012763
618.780300 -0.005994
619.009100 0.005549
619.237900 0.010629
619.466700 -0.003072
619.695600 -0.000208
619.924400 0.001543
620.153300 0.017750
620.382100 0.004023
620.611000 0.007461
620.839900 -0.005888
621.068800 0.002551
621.297700 -0.002560
621.526600 0.016691
621.755600 0.002883
621.984500 -0.004470
622.213500 -0.000031
622.442400 0.013760
622.671400 0.006834
622.900400 -0.001722
623.129400 0.020278
623.358400 0.011201
623.587400 0.017180
623.816400 -0.020277
624.045400 0.026963
624.274500 0.003534
624.503500 0.002198
624.732600 -0.003641
624.961700 0.013044
625.190800 -0.010732
625.419900 -0.000302
625.649000 0.002688
625.878100 0.017085
626.107200 -0.009715
626.336400 -0.003976
626.565500 0.016552
626.794700 0.010684
627.023800 -0.009567
627.253000 0.007011
627.482200 0.008194
627.711400 0.016211
627.940600 0.020776
628.169800 0.007830
628.399100 0.017959
628.628300 0.002085
628.857600 0.003447
629.086800 -0.013378
629.316100 0.006131
629.545400 0.001981
629.774700 0.020723
630.004000 0.025945
630.233300 0.016260
630.462600 0.005096
630.692000 0.008408
630.921300 0.015180
631.150700 0.014222
631.380100 -0.001103
631.609400 0.005905
631.838800 0.015076
632.068200 -0.003718
632.297600 -0.001563
632.527100 0.024118
632.756500 0.010599
632.985900 0.016225
633.215400 -0.005556
633.444800 0.021676
633.674300 0.000169
633.903800 -0.012501
634.133300 -0.004877
634.362800 -0.009022
634.592300 0.003899
634.821800 0.022249
635.051400 0.013165
635.280900 0.011731
635.510500 -0.023086
635.740000 -0.013530
635.969600 0.034772
636.199200 0.010510
636.428800 0.004627
636.658400 0.005082
636.888000 -0.019516
637.117700 -0.005093
637.347300 0.004805
637.577000 0.016915
637.806600 0.023513
638.036300 0.002951
638.266000 0.001222
638.495700 0.013484
638.725400 0.005087
638.955100 0.005004
639.184800 0.007313
639.414500 0.011364
639.644300 0.006607
639.874000 0.016512
640.103800 -0.000680
640.333600 0.016699
640.563300 -0.028040
640.793100 0.015411
641.022900 0.028734
641.252800 0.003600
641.482600 0.034103
641.712400 0.023743
641.942300 -0.018084
642.172100 0.006052
642.402000 0.005471
642.631900 -0.007764
642.861700 -0.006714
643.091600 0.029275
643.321600 0.032495
643.551500 -0.027459
643.781400 0.022289
644.011300 -0.010253
644.241300 0.037306
644.471200 -0.009624
644.701200 0.000835
644.931200 0.029299
645.161200 0.024479
645.391200 -0.000795
645.621200 0.042477
645.851200 0.011790
646.081200 -0.002906
646.311300 0.003831
646.541300 0.037322
646.771400 -0.024795
647.001500 0.036352
647.231600 -0.034135
647.461600 0.013616
647.691800 -0.012604
647.921900 0.006913
648.152000 0.036255
648.382100 0.016247
648.612300 0.004577
648.842400 -0.000586
649.072600 0.028340
649.302800 -0.000579
649.532900 0.007116
649.763100 0.005192
649.993300 -0.007277
650.223600 0.007734
650.453800 -0.010176
650.684000 -0.003126
650.914300 -0.010157
651.144500 0.039543
651.374800 0.019665
651.605100 -0.013831
651.835400 -0.033730
652.065700 0.000895
652.296000 -0.009115
652.526300 0.018827
652.756600 -0.034246
652.987000 -0.022711
653.217300 -0.034943
653.447700 0.006762
653.678000 -0.003989
653.908400 0.015712
654.138800 0.024215
654.369200 0.039873
654.599600 0.017420
654.830000 0.014658
655.060500 0.004653
655.290900 0.000923
655.521300 0.020528
655.751800 0.025154
655.982300 0.002910
656.212800 0.000974
656.443300 0.001458
656.673800 0.001232
656.904300 0.002850
657.134800 0.018624
657.365300 0.019406
657.595900 0.013629
657.826400 0.015766
658.057000 0.022065
658.287500 0.014356
658.518100 0.001979
658.748700 0.017804
658.979300 0.017336
659.209900 -0.003285
659.440600 -0.021105
659.671200 -0.041567
659.901800 -0.049508
660.132500 -0.051303
660.363200 -0.010988
660.593800 0.019216
660.824500 -0.009413
661.055200 -0.007592
661.285900 0.016842
661.516600 -0.012231
661.747400 0.031928
661.978100 -0.005114
662.208800 0.015917
662.439600 0.037176
662.670400 0.001483
662.901100 0.026030
663.131900 0.016777
663.362700 -0.022778
663.593500 0.011214
663.824300 0.006808
664.055200 0.023149
664.286000 -0.011022
664.516800 -0.003998
664.747700 0.010212
664.978600 -0.011041
665.209400 0.008298
665.440300 0.033591
665.671200 0.015081
665.902100 0.055768
666.133000 0.010913
666.364000 0.011897
666.594900 0.005147
666.825900 -0.037105
667.056800 0.030567
667.287800 0.017628
667.518800 0.033013
667.749700 -0.005372
667.980700 0.013948
668.211700 -0.017365
668.442800 0.049572
668.673800 0.017830
668.904800 -0.021374
669.135900 0.005474
669.366900 -0.010857
669.598000 0.000874
669.829100 -0.024413
670.060200 -0.017736
670.291300 -0.004519
670.522400 0.012640
670.753500 0.016833
670.984600 -0.023117
671.215700 -0.002125
671.446900 0.032849
671.678100 0.016702
671.909200 -0.003809
672.140400 0.019391
672.371600 -0.013787
672.602800 0.013235
672.834000 -0.011928
673.065200 0.012068
673.296400 -0.033212
673.527700 0.012236
673.758900 -0.001980
673.990200 0.027080
674.221400 0.012711
674.452700 0.016541
674.684000 -0.027304
674.915300 0.017384
675.146600 -0.010800
675.377900 -0.022604
675.609300 -0.004149
675.840600 0.029855
676.071900 0.013836
676.303300 0.001346
676.534700 0.018502
676.766100 -0.032574
676.997400 0.000503
677.228800 -0.012285
677.460200 0.007474
677.691700 0.014262
677.923100 0.044343
678.154500 0.008291
678.386000 -0.013138
678.617400 -0.005866
678.848900 0.029456
679.080400 -0.008979
679.311900 0.015331
679.543400 0.014851
679.774900 0.014290
680.006400 0.029562
680.237900 -0.002754
680.469400 0.016275
680.701000 0.035501
680.932500 0.029609
681.164100 -0.000554
681.395700 -0.008603
681.627300 0.004964
681.858900 0.012450
682.090500 0.026710
682.322100 -0.024709
682.553700 -0.010484
682.785400 0.007211
683.017000 0.003582
683.248700 0.016969
683.480300 0.004142
683.712000 -0.032898
683.943700 0.006798
684.175400 0.021663
684.407100 0.024160
684.638800 0.006795
684.870500 0.010007
685.102300 0.001514
685.334000 0.006631
685.565800 0.045294
685.797500 0.018239
686.029300 0.007528
686.261100 0.031053
686.492900 -0.005619
686.724700 0.006112
686.956500 -0.005996
687.188300 0.012415
687.420200 -0.000428
687.652000 0.014591
687.883800 -0.006876
688.115700 -0.016795
688.347600 -0.000206
688.579500 0.015009
688.811400 0.010315
689.043300 0.012920
689.275200 0.005490
689.507100 0.005193
689.739000 -0.018776
689.971000 -0.008612
690.202900 0.016929
690.434900 -0.026249
690.666900 0.010522
690.898800 0.027465
691.130800 0.015945
691.362800 0.031587
691.594800 0.002505
691.826900 0.001119
692.058900 0.016860
692.290900 0.027270
692.523000 0.024993
692.755000 0.006272
692.987100 0.005297
693.219200 0.015701
693.451300 0.021992
693.683400 0.012876
693.915500 0.000304
694.147600 0.023689
694.379700 -0.022112
694.611900 0.017729
694.844000 0.004696
695.076200 0.006657
695.308300 0.040896
695.540500 0.018857
695.772700 -0.026010
696.004900 0.011497
696.237100 -0.006488
696.469300 0.002925
696.701600 0.009522
696.933800 -0.001226
697.166000 0.007569
697.398300 0.037132
697.630600 0.062842
697.862800 0.022180
698.095100 0.031202
698.327400 0.007264
698.559700 0.008301
698.792000 -0.013368
699.024300 -0.005237
699.256700 -0.000948
699.489000 0.023390
699.721400 0.001487
699.953700 -0.007897
700.186100 -0.004567
700.418500 -0.001476
700.650900 0.001401
700.883300 -0.008561
701.115700 0.020210
701.348100 0.030338
701.580600 0.017058
701.813000 0.010412
702.045400 0.010400
702.277900 0.038920
702.510400 0.003486
702.742900 -0.010646
702.975300 -0.029478
703.207800 0.022823
703.440300 0.019646
703.672900 0.049150
703.905400 -0.014543
704.137900 0.029167
704.370500 -0.008435
704.603000 -0.003572
704.835600 -0.009185
705.068200 -0.002983
705.300800 -0.009529
705.533400 0.022195
705.766000 0.017996
705.998600 0.004189
706.231200 0.000549
706.463800 0.035113
706.696500 -0.003870
706.929100 0.026755
707.161800 -0.044448
707.394500 -0.002633
707.627200 0.020813
707.859900 0.017342
708.092600 0.024737
708.325300 -0.003496
708.558000 0.055208
708.790700 0.025625
709.023500 -0.003261
709.256200 -0.004911
709.489000 -0.024497
709.721700 0.011328
709.954500 -0.016606
710.187300 -0.018425
710.420100 0.026052
710.652900 -0.002724
710.885700 -0.000167
711.118600 -0.017200
711.351400 -0.037643
711.584200 -0.010071
711.817100 -0.007923
712.050000 0.005265
712.282800 0.001700
712.515700 0.006455
712.748600 -0.000292
712.981500 -0.002194
713.214400 0.003709
713.447400 0.019830
713.680300 -0.007594
713.913200 0.021094
714.146200 0.013922
714.379100 -0.007933
714.612100 0.003115
714.845100 -0.003202
715.078100 0.009228
715.311100 -0.020564
715.544100 0.039143
715.777100 -0.002956
716.010200 0.000000
716.243200 -0.009135
716.476200 0.005884
716.709300 0.008805
716.942400 -0.010910
717.175400 -0.022256
717.408500 0.010265
717.641600 0.002452
717.874700 -0.017600
718.107800 0.012323
718.341000 0.019181
718.574100 0.005112
718.807200 0.015141
719.040400 0.001357
719.273600 0.013236
719.506700 0.020684
719.739900 0.000500
719.973100 -0.012380
720.206300 -0.013145
720.439500 0.011872
720.672700 -0.017920
720.906000 -0.007261
721.139200 0.010876
721.372500 -0.010472
721.605700 0.018866
721.839000 0.024509
722.072300 -0.004405
722.305500 0.002741
722.538800 0.000661
722.772100 0.037836
723.005500 -0.009868
723.238800 0.014614
723.472100 0.005982
723.705500 0.006916
723.938800 -0.016408
724.172200 0.022665
724.405600 0.013303
724.638900 0.017790
724.872300 -0.021541
725.105700 0.006817
725.339100 0.006715
725.572600 0.007231
725.806000 -0.019847
726.039400 0.005423
726.272900 0.012069
726.506300 0.005925
726.739800 0.006304
726.973300 0.009274
727.206800 -0.001695
727.440300 0.033902
727.673800 0.000671
727.907300 0.007700
728.140800 -0.012041
728.374300 0.033123
728.607900 -0.000050
728.841400 0.002307
729.075000 0.001708
729.308600 -0.003726
729.542100 -0.010132
729.775700 0.029474
730.009300 -0.018920
730.242900 -0.003216
730.476600 0.026464
730.710200 0.019990
730.943800 0.032191
731.177500 0.008695
731.411100 0.026508
731.644800 0.033372
731.878500 0.007492
732.112200 -0.003570
732.345800 0.005899
732.579500 0.016386
732.813300 0.005329
733.047000 0.004165
733.280700 0.016581
733.514500 0.017173
733.748200 0.025704
733.982000 0.018560
734.215700 0.001843
734.449500 0.016633
734.683300 0.017501
734.917100 -0.011237
735.150900 -0.013335
735.384700 0.003715
735.618500 0.016757
735.852400 0.021540
736.086200 0.024526
736.320100 -0.022267
736.553900 0.003225
736.787800 0.000909
737.021700 0.002663
737.255600 0.007936
737.489500 0.006234
737.723400 -0.004014
737.957300 0.024156
738.191200 0.005607
738.425200 -0.020808
738.659100 0.006562
738.893100 -0.020259
739.127100 0.017527
739.361000 0.004054
739.595000 -0.000995
739.829000 0.006707
740.063000 0.003420
740.297000 -0.011897
740.531000 0.009519
740.765100 -0.014147
740.999100 0.000033
741.233200 0.033594
741.467200 0.000698
741.701300 -0.003295
741.935400 -0.017311
742.169500 -0.024733
742.403600 -0.015522
742.637700 -0.009586
742.871800 -0.016032
743.105900 0.007697
743.340000 -0.012468
743.574200 -0.000430
743.808300 -0.000143
744.042500 0.006723
744.276700 0.016887
744.510800 0.021867
744.745000 -0.015473
744.979200 0.016958
745.213400 0.024965
745.447700 -0.001233
745.681900 0.012185
745.916100 0.007559
746.150400 0.013382
746.384600 -0.003678
746.618900 -0.035293
746.853200 -0.012800
747.087400 0.003927
747.321700 -0.008061
747.556000 -0.023457
747.790300 0.002307
748.024700 -0.011406
748.259000 -0.025043
748.493300 0.016252
748.727700 -0.026118
748.962000 0.000316
749.196400 0.015664
749.430800 -0.001927
749.665200 -0.014843
749.899500 0.015788
750.133900 0.012148
750.368400 0.006165
750.602800 0.008041
750.837200 -0.014397
751.071700 0.014300
751.306100 0.013637
751.540600 -0.012522
751.775000 0.014656
752.009500 -0.009374
752.244000 0.012261
752.478500 -0.007503
752.713000 0.000776
752.947500 -0.028150
753.182000 -0.020526
753.416600 -0.001666
753.651100 0.013948
753.885600 0.033361
754.120200 0.017862
754.354800 0.000592
754.589400 0.005776
754.823900 0.002766
755.058500 0.023719
755.293100 0.007145
755.527800 0.014815
755.762400 0.003175
755.997000 0.004091
756.231700 0.011460
756.466300 0.015143
756.701000 0.014937
756.935600 0.014301
757.170300 0.013792
757.405000 0.032358
757.639700 0.004910
757.874400 0.016966
758.109100 0.018345
758.343800 0.008860
758.578600 0.008508
758.813300 -0.003570
759.048100 -0.004973
759.282800 0.005519
759.517600 0.022946
759.752400 0.003234
759.987200 0.013541
760.222000 -0.011364
760.456800 -0.001840
760.691600 0.015329
760.926400 0.017625
761.161300 0.006087
761.396100 0.002067
761.631000 0.002871
761.865800 0.022615
762.100700 -0.003233
762.335600 -0.002748
762.570500 -0.025419
762.805400 -0.009990
763.040300 -0.012575
763.275200 -0.008081
763.510100 0.011334
763.745000 0.008083
763.980000 0.021615
764.214900 -0.002110
764.449900 0.001593
764.684900 -0.003997
764.919800 -0.008925
765.154800 -0.007447
765.389800 0.026069
765.624800 0.013451
765.859900 -0.002795
766.094900 0.001048
766.329900 0.010178
766.565000 0.008586
766.800000 -0.006227
767.035100 -0.011454
767.270100 0.000385
767.505200 -0.002797
767.740300 -0.013820
767.975400 0.012561
768.210500 0.012526
768.445600 -0.015831
768.680800 -0.010529
768.915900 0.029245
769.151000 -0.002659
769.386200 0.008996
769.621400 -0.003503
769.856500 0.021514
770.091700 0.029472
770.326900 -0.013511
770.562100 0.009347
770.797300 0.007267
771.032500 -0.024255
771.267700 0.016035
771.503000 -0.005403
771.738200 0.015913
771.973500 -0.024881
772.208700 0.030111
772.444000 0.003025
772.679300 -0.025543
772.914600 0.014260
773.149900 -0.004891
773.385200 0.008563
773.620500 0.029097
773.855800 0.020242
774.091100 -0.018632
774.326500 0.023968
774.561800 0.020858
774.797200 0.018021
775.032600 0.039026
775.267900 -0.032807
775.503300 -0.004319
775.738700 0.023875
775.974100 0.026157
776.209500 0.009218
776.445000 -0.004349
776.680400 0.071625
776.915800 -0.008935
777.151300 -0.009371
777.386800 0.000123
777.622200 -0.005072
777.857700 -0.030878
778.093200 0.027362
778.328700 -0.009483
778.564200 -0.009177
778.799700 0.025869
779.035200 -0.029979
779.270700 0.004950
779.506300 -0.022254
779.741800 -0.006680
779.977400 0.005930
780.213000 0.020822
780.448500 0.004505
780.684100 -0.024851
780.919700 0.017589
781.155300 -0.005302
781.390900 0.032257
781.626500 -0.016029
781.862200 0.019425
782.097800 0.040777
782.333500 0.010004
782.569100 0.019159
782.804800 -0.003869
783.040500 0.015052
783.276100 -0.022818
783.511800 0.002063
783.747500 0.011999
783.983200 0.004975
784.219000 0.023070
784.454700 0.021021
784.690400 0.014381
784.926200 0.034264
785.161900 0.022003
785.397700 0.011384
785.633500 -0.028644
785.869200 -0.011149
786.105000 0.035553
786.340800 0.050042
786.576600 0.011503
786.812400 0.016096
787.048300 0.018583
787.284100 0.020660
787.519900 -0.007692
787.755800 0.023137
787.991700 0.020529
788.227500 0.016887
788.463400 -0.003572
788.699300 -0.028974
788.935200 0.027959
789.171100 0.016773
789.407000 -0.010164
789.642900 0.012740
789.878900 0.028150
790.114800 0.027466
790.350700 -0.005865
790.586700 0.027728
790.822700 0.017251
791.058600 -0.003928
791.294600 -0.000628
791.530600 -0.006875
791.766600 -0.002836
792.002600 0.055772
792.238700 0.016485
792.474700 -0.006753
792.710700 0.013252
792.946800 -0.056508
793.182800 0.008644
793.418900 0.025195
793.655000 0.027455
793.891000 0.005778
794.127100 0.019332
794.363200 0.005293
794.599300 0.032017
794.835500 0.014211
795.071600 0.025077
795.307700 0.003599
795.543900 0.007240
795.780000 0.028551
796.016200 0.013292
796.252300 0.030728
796.488500 0.012410
796.724700 0.041336
796.960900 0.042020
797.197100 0.007435
797.433300 0.013028
797.669500 -0.020615
797.905800 -0.003616
798.142000 0.048489
798.378300 0.019482
798.614500 -0.027908
798.850800 0.005498
799.087100 -0.000257
799.323300 0.011044
799.559600 -0.001749
799.795900 0.031311
800.032200 0.049387
800.268600 -0.030641
800.504900 0.006354
800.741200 0.016339
800.977600 0.027234
801.213900 0.026168
801.450300 0.005751
801.686700 0.021330
801.923000 0.004531
802.159400 0.005916
802.395800 0.014493
802.632200 0.058516
802.868600 -0.036852
803.105100 0.023779
803.341500 -0.046973
803.577900 0.011057
803.814400 0.035637
804.050800 0.001642
804.287300 0.036559
804.523800 0.009878
804.760300 0.058608
804.996800 -0.034266
805.233300 0.025285
805.469800 0.035934
805.706300 0.034758
805.942800 0.000929
806.179400 0.019030
806.415900 0.003947
806.652500 0.027262
806.889000 0.059679
807.125600 0.000287
807.362200 -0.009310
807.598800 -0.008403
807.835400 0.006790
808.072000 0.016447
808.308600 0.053473
808.545200 0.021722
808.781800 0.028009
809.018500 0.036291
809.255100 -0.031190
809.491800 -0.011662
809.728400 -0.012757
809.965100 0.008103
810.201800 0.010304
810.438500 0.005209
810.675200 -0.026097
810.911900 0.038760
811.148600 0.057177
811.385300 0.038234
811.622100 0.027267
811.858800 -0.002610
812.095600 0.037798
812.332300 -0.014211
812.569100 -0.004766
812.805900 0.003968
813.042700 0.017913
813.279500 0.013501
813.516300 -0.036771
813.753100 -0.010972
813.989900 0.050343
814.226700 0.075875
814.463600 0.051814
814.700400 0.035761
814.937300 0.031653
815.174200 0.020045
815.411000 -0.078685
815.647900 -0.062474
815.884800 0.001851
816.121700 0.072016
816.358600 0.011231
816.595500 0.004004
816.832400 -0.001740
817.069400 0.007060
817.306300 0.013588
817.543300 -0.005136
817.780200 0.008838
818.017200 0.085868
818.254200 0.033682
818.491200 0.026441
818.728200 -0.014611
818.965200 -0.004839
819.202200 -0.026486
819.439200 0.079887
819.676200 -0.038099
819.913300 0.032629
820.150300 0.023915
820.387400 0.019355
820.624400 0.016722
820.861500 0.003490
821.098600 0.005396
821.335700 0.053161
821.572700 0.003094
821.809900 0.027739
822.047000 0.040145
822.284100 -0.036934
822.521200 0.021385
822.758400 -0.002826
822.995500 0.017343
823.232700 0.009579
823.469800 0.054175
823.707000 -0.006688
823.944200 0.078696
824.181400 -0.016156
824.418600 -0.024146
824.655800 -0.007108
824.893000 0.002201
825.130200 0.051579
825.367500 0.014803
825.604700 0.031408
825.841900 0.022664
826.079200 0.066874
826.316500 0.057901
826.553700 0.035243
826.791000 0.056178
827.028300 0.014086
827.265600 0.029679
827.502900 -0.006039
827.740200 0.127999
827.977600 0.008392
828.214900 0.033109
828.452200 0.020603
828.689600 -0.040181
828.927000 -0.009558
829.164300 -0.020207
829.401700 -0.011592
829.639100 0.051362
829.876500 -0.001724
830.113900 0.027925
830.351300 -0.021847
830.588700 0.014182
830.826100 0.045975
831.063600 0.053358
831.301000 0.023422
831.538500 -0.024169
831.775900 0.032245
832.013400 0.070411
832.250900 0.036137
832.488400 0.126196
832.725900 -0.032425
832.963400 -0.040631
833.200900 0.064669
833.438400 -0.009337
833.675900 0.069659
833.913500 0.047672
834.151000 0.046619
834.388600 0.052856
834.626100 0.002012
834.863700 0.028041
835.101300 -0.003135
835.338900 0.004328
835.576500 0.004848
835.814100 -0.067440
836.051700 -0.015227
836.289300 0.106725
836.526900 -0.018843
836.764600 0.087579
837.002200 0.131059
837.239900 0.005700
837.477500 -0.031238
837.715200 0.052490
837.952900 0.039938
838.190600 0.030392
838.428300 -0.057005
838.666000 0.090019
838.903700 0.025358
839.141400 0.052352
839.379100 -0.016314
839.616900 0.040066
839.854600 0.038543
840.092400 -0.039197
840.330200 0.096897
840.567900 0.088142
840.805700 -0.017072
841.043500 0.025214
841.281300 0.017805
841.519100 0.009299
841.756900 0.020289
841.994700 -0.065980
842.232600 0.070971
842.470400 0.108046
842.708200 -0.106527
842.946100 0.057777
843.184000 0.138234
843.421800 0.175425
843.659700 0.003466
843.897600 -0.066472
844.135500 0.055032
844.373400 0.056585
844.611300 0.129790
844.849200 0.210290
845.087200 0.075697
845.325100 0.198027
845.563100 0.011557
845.801000 0.092311
846.039000 0.037055
846.277000 -0.032094
846.514900 -0.000689
846.752900 -0.149611
846.990900 -0.137582
847.228900 -0.084434
847.466900 0.084994
847.705000 0.022845
847.943000 0.007757
848.181000 0.121139
848.419100 0.034347
848.657100 0.075582
848.895200 0.058233
849.133300 0.041903
849.371300 0.065984
849.609400 0.035754
849.847500 0.031063
850.085600 0.152689
850.323700 0.010092
850.561900 0.001236
850.800000 -0.015529
851.038100 0.048596
851.276300 -0.007438
851.514400 -0.066129
851.752600 0.038402
851.990800 0.014989
852.228900 0.018676
852.467100 -0.008388
852.705300 -0.031649
852.943500 0.034517
853.181700 0.022273
853.420000 -0.039225
853.658200 0.049083
853.896400 0.046884
854.134700 0.067512
854.372900 0.070565
854.611200 0.016811
854.849500 0.052678
855.087700 0.008919
855.326000 0.044315
855.564300 0.025435
855.802600 0.047524
856.040900 0.071409
856.279200 0.049560
856.517600 0.015669
856.755900 -0.019982
856.994200 -0.018528
857.232600 0.014498
857.471000 -0.030815
857.709300 0.009939
857.947700 0.001690
858.186100 0.027728
858.424500 -0.042992
858.662900 0.061502
858.901300 0.014664
859.139700 0.034477
859.378100 -0.022226
859.616600 0.057113
859.855000 -0.070223
860.093500 -0.062544
860.331900 -0.016786
860.570400 0.009053
860.808900 -0.032354
861.047300 0.086434
861.285800 0.050528
861.524300 0.247544
861.762800 -0.007280
862.001300 0.037029
862.239900 0.016669
862.478400 0.008046
862.716900 0.100673
862.955500 0.139329
863.194000 0.004683
863.432600 0.003233
863.671200 0.048201
863.909800 -0.029928
864.148300 -0.036496
864.386900 0.080207
864.625500 0.027392
864.864200 -0.014299
865.102800 -0.054026
865.341400 0.005848
865.580000 -0.095121
865.818700 0.046844
866.057300 0.044651
866.296000 0.011788
866.534700 -0.121298
866.773300 0.008759
867.012000 -0.039295
867.250700 0.045063
867.489400 -0.005194
867.728100 -0.040836
867.966900 0.174885
868.205600 0.008167
868.444300 -0.029263
868.683100 -0.043544
868.921800 -0.032968
869.160600 0.018997
869.399300 0.084741
869.638100 0.035472
869.876900 0.042706
870.115700 0.002079
870.354500 -0.000680
870.593300 -0.042090
870.832100 0.044487
871.070900 0.098279
871.309700 -0.033922
871.548600 0.104979
871.787400 0.098436
872.026300 -0.031184
872.265100 0.012049
872.504000 0.040644
872.742900 0.082785
872.981800 -0.109951
873.220700 -0.005499
873.459600 0.101220
873.698500 0.146994
873.937400 0.036899
874.176300 0.023358
874.415300 -0.006177
874.654200 0.055180
874.893200 -0.008644
875.132100 -0.072101
875.371100 0.035660
875.610100 0.096291
875.849100 0.089125
876.088000 0.014540
876.327000 0.182825
876.566100 -0.020010
876.805100 -0.012948
877.044100 -0.067801
877.283100 -0.044027
877.522200 -0.006063
877.761200 0.043994
878.000300 0.040402
878.239300 0.074779
878.478400 0.043216
878.717500 -0.022619
878.956600 -0.003047
879.195700 0.103931
879.434800 -0.032658
879.673900 -0.009881
879.913000 0.034679
880.152100 0.104349
880.391300 0.042064
880.630400 0.020852
880.869600 0.013973
881.108700 -0.010409
881.347900 -0.041669
881.587100 0.047519
881.826200 0.055531
882.065400 0.009213
882.304600 0.115264
882.543800 0.050738
882.783100 0.079645
883.022300 0.022608
883.261500 -0.065980
883.500700 0.033746
883.740000 0.151236
883.979200 0.000681
884.218500 -0.038888
884.457800 0.034915
884.697100 -0.021913
884.936300 0.075608
885.175600 -0.052401
885.414900 0.189367
885.654200 0.062205
885.893600 -0.046403
886.132900 0.002578
886.372200 0.038344
886.611600 -0.061751
886.850900 0.110128
887.090300 0.098501
887.329600 0.113720
887.569000 0.049835
887.808400 -0.003710
888.047800 -0.080549
888.287200 -0.021231
888.526600 -0.082819
888.766000 -0.076195
889.005400 0.004402
889.244800 0.018751
889.484300 0.192924
889.723700 0.000071
889.963200 -0.050741
890.202600 0.039990
890.442100 -0.136407
890.681600 0.092297
890.921100 0.145617
891.160600 0.175367
891.400100 -0.008663
891.639600 0.086013
891.879100 0.001873
892.118600 0.064121
892.358100 -0.088324
892.597700 0.075626
892.837200 0.027479
893.076800 0.059859
893.316300 0.017736
893.555900 0.135675
893.795500 0.125695
894.035100 0.005451
894.274700 0.014210
894.514300 -0.036684
894.753900 -0.001995
894.993500 -0.050494
895.233100 -0.085124
895.472700 -0.089751
895.712400 0.076840
895.952000 0.043292
896.191700 -0.089212
896.431400 -0.075585
896.671000 0.066141
896.910700 -0.034415
897.150400 -0.057705
897.390100 -0.045920
897.629800 0.069567
897.869500 -0.087993
898.109200 0.047743
898.348900 0.118551
898.588700 -0.019804
898.828400 0.107876
899.068200 0.027163
899.307900 0.038884
899.547700 0.192877
899.787500 0.139306
900.027200 -0.102054
900.267000 0.056850
900.506800 0.059331
900.746600 -0.009758
900.986400 0.096715
901.226300 0.090630
901.466100 0.019781
901.705900 0.203927
901.945800 0.006155
902.185600 0.160645
902.425500 0.146581
902.665400 -0.064859
902.905200 -0.011331
903.145100 0.092776
903.385000 -0.105053
903.624900 0.050670
903.864800 -0.012890
904.104700 0.067134
904.344600 -0.073431
904.584600 -0.040309
904.824500 -0.108015
905.064400 0.044282
905.304400 -0.006112
905.544400 0.041248
905.784300 0.243137
906.024300 0.047765
906.264300 0.021107
906.504300 0.105477
906.744300 0.044809
906.984300 -0.035906
907.224300 0.109906
907.464300 0.053013
907.704300 0.094588
907.944400 -0.123476
908.184400 0.024858
908.424500 -0.020368
908.664500 -0.049848
908.904600 0.049467
909.144700 0.179884
909.384700 0.234259
909.624800 -0.061123
909.864900 0.031551
910.105000 -0.046748
910.345200 -0.329097
910.585300 0.113796
910.825400 -0.078197
911.065500 -0.029214
911.305700 0.008378
911.545800 0.050563
911.786000 0.071795
912.026200 0.118793
912.266300 0.016324
912.506500 0.139951
912.746700 0.044930
912.986900 -0.140912
913.227100 0.054797
913.467300 0.189214
913.707500 0.072972
913.947800 -0.057090
914.188000 0.189040
914.428300 -0.098009
914.668500 -0.069828
914.908800 0.130196
915.149000 -0.054723
915.389300 0.121361
915.629600 0.105522
915.869900 0.108388
916.110200 -0.099316
916.350500 0.053053
916.590800 -0.030865
916.831100 0.028420
917.071400 0.089890
917.311800 -0.101749
917.552100 -0.040885
917.792500 0.068157
918.032800 -0.036620
918.273200 0.222586
918.513600 -0.081942
918.753900 0.273758
918.994300 0.066574
919.234700 -0.046915
919.475100 0.053406
919.715500 0.070884
919.956000 0.118827
920.196400 0.257662
920.436800 0.032829
920.677300 -0.003707
920.917700 -0.067209
921.158200 0.044328
921.398600 0.144375
921.639100 0.029756
921.879600 -0.027338
922.120100 0.447384
922.360600 -0.037169
922.601100 0.059235
922.841600 0.207828
923.082100 -0.082974
923.322600 0.040510
923.563100 0.073637
923.803700 0.080399
924.044200 -0.020526
924.284800 0.043425
924.525400 0.027797
924.765900 0.114355
925.006500 -0.082451
925.247100 0.086616
925.487700 0.117465
925.728300 0.133763
925.968900 -0.030861
926.209500 -0.038673
926.450100 0.043737
926.690800 0.169180
926.931400 0.497211
927.172000 0.207177
927.412700 0.109234
927.653300 -0.000777
927.894000 -0.101132
928.134700 0.152411
928.375400 -0.022655
928.616100 0.073950
928.856800 0.400733
929.097500 -0.073649
929.338200 -0.111257
929.578900 -0.038646
929.819600 0.263864
930.060400 -0.175891
930.301100 0.319672
930.541900 -0.214801
930.782600 0.175170
931.023400 0.005979
931.264200 0.263888
931.504900 0.144992
931.745700 -0.088618
931.986500 0.084787
932.227300 0.180336
932.468100 0.302682
932.708900 0.152151
932.949800 0.053939
933.190600 0.016080
933.431400 0.248099
933.672300 0.049325
933.913100 -0.118176
934.154000 0.190750
934.394900 -0.139566
934.635800 -0.046595
934.876600 0.257649
935.117500 0.235986
935.358400 0.627581
935.599300 0.533750
935.840300 -0.097318
936.081200 0.720579
936.322100 -0.292849
936.563000 0.261207
936.804000 0.048430
937.044900 0.068159
937.285900 0.228094
937.526900 0.935542
937.767800 0.159091
938.008800 0.867816
938.249800 0.250177
938.490800 0.260083
938.731800 0.667904
938.972800 0.291119
939.213800 0.738959
939.454900 0.114222
939.695900 0.111308
939.936900 0.142383
940.178000 0.363080
940.419000 -0.240931
940.660100 0.540751
940.901200 0.038113
941.142200 -0.126788
941.383300 0.385509
941.624400 -0.163472
941.865500 0.166399
942.106600 0.139791
942.347700 0.010355
942.588900 0.627541
942.830000 0.188042
943.071100 0.143100
943.312300 0.339659
943.553400 0.108339
943.794600 0.261218
944.035700 0.259317
944.276900 -0.201810
944.518100 0.532151
944.759300 0.215839
945.000500 -0.002577
945.241700 0.044218
945.482900 0.200152
945.724100 0.457962
945.965300 0.139978
946.206600 0.040568
946.447800 0.125815
946.689100 0.036818
946.930300 -0.702050
947.171600 -0.082387
947.412800 0.384682
947.654100 -0.173430
947.895400 0.141882
948.136700 0.039544
948.378000 -0.340987
948.619300 0.148003
948.860600 0.409165
949.101900 1.050631
949.343300 -0.289974
949.584600 -0.115873
949.825900 0.603769
950.067300 0.115948
950.308600 2.975891
950.550000 0.244567
950.791400 -0.194057
951.032700 -0.434115
951.274100 0.947735
951.515500 0.864659
951.756900 -0.153794
951.998300 -0.193523
952.239800 0.524858
952.481200 3.168203
952.722600 -0.240802
952.964000 0.400760
953.205500 0.095606
953.446900 -0.168834
953.688400 -0.284313
953.929900 0.165647
954.171300 -0.553430
954.412800 0.011734
954.654300 -0.139707
954.895800 0.433054
955.137300 0.736302
955.378800 -0.181207
955.620300 -0.234129
955.861800 0.095622
956.103400 -0.011730
956.344900 -0.040707
956.586500 0.592713
956.828000 -0.141316
957.069600 3.067071
957.311100 0.317062
957.552700 0.287098
957.794300 3.097604
958.035900 0.023865
958.277500 0.271628
958.519100 3.125806
958.760700 -0.050382
959.002300 2.632457
959.243900 -0.257989
959.485600 -0.113661
959.727200 0.004956
959.968800 -0.485252
960.210500 -0.244529
960.452200 -0.208097
960.693800 -0.121524
960.935500 0.000000
961.177200 0.181444
961.418900 -0.585085
961.660600 0.001973
961.902300 0.086505
962.144000 -0.520660
962.385700 0.004939
962.627400 -0.230488
962.869200 -0.444128
963.110900 0.217140
963.352700 0.010159
963.594400 -0.058554
963.836200 2.999565
964.077900 0.017446
964.319700 1.823598
964.561500 3.252853
964.803300 1.113943
965.045100 -0.022055
965.286900 2.791691
965.528700 -0.224323
965.770500 0.079383
966.012300 -0.110149
966.254200 -0.352572
966.496000 -0.473653
966.737900 0.134208
966.979700 0.121647
967.221600 2.833784
967.463400 0.417903
967.705300 0.137348
967.947200 0.935459
968.189100 0.340283
968.431000 0.110246
968.672900 0.327870
968.914800 1.230854
969.156700 2.745075
969.398700 0.293382
969.640600 -0.669887
969.882500 0.065389
970.124500 0.549882
970.366400 0.393274
970.608400 0.639849
970.850400 -0.440639
971.092300 0.566139
971.334300 -0.173121
971.576300 -0.316609
971.818300 0.169437
972.060300 -0.060894
972.302300 0.996327
972.544300 0.165291
972.786400 3.239550
973.028400 0.882543
973.270400 -0.015370
973.512500 0.581367
973.754500 3.218010
973.996600 -0.149506
974.238700 3.228913
974.480700 2.853698
974.722800 -0.166025
974.964900 2.859739
975.207000 -0.100387
975.449100 -0.504776
975.691200 0.341877
975.933300 0.037457
976.175500 -3.150756
976.417600 0.027489
976.659700 0.178611
976.901900 3.021603
977.144000 0.016766
977.386200 2.745075
977.628300 0.471948
977.870500 3.139249
978.112700 -0.150156
978.354900 -0.326802
978.597100 -0.112245
978.839300 3.206826
979.081500 -0.066566
979.323700 -2.625312
979.565900 -0.393204
979.808200 3.265290
980.050400 0.278418
980.292600 -0.122055
980.534900 0.290203
980.777100 0.044419
981.019400 -0.571672
981.261700 0.308473
981.504000 3.348889
981.746200 1.845098
981.988500 -0.150201
982.230800 2.805501
982.473100 0.391164
982.715500 3.218010
982.957800 -0.249490
983.200100 2.990339
983.442400 2.610660
983.684800 2.799341
983.927100 -0.150181
984.169500 -0.247570
984.411800 0.046422
984.654200 -0.011165
984.896600 -0.086889
985.139000 1.230449
985.381400 1.304890
985.623800 0.145393
985.866200 -0.220570
986.108600 0.000000
986.351000 0.443501
986.593400 1.497982
986.835800 0.155483
987.078300 2.682145
987.320700 -0.477453
987.563200 2.700704
987.805600 2.414973
988.048100 0.521757
988.290600 0.037789
988.533100 -3.102777
988.775600 0.400674
989.018000 -0.084478
989.260500 0.683239
989.503100 0.000000
989.745600 -1.081623
989.988100 0.000000
990.230600 0.193430
990.473200 0.079383
990.715700 3.257679
990.958200 -0.263005
991.200800 -0.418385
991.443400 0.000000
991.685900 2.710117
991.928500 0.000000
992.171100 2.158362
992.413700 1.201527
992.656300 -0.043808
992.898900 2.866287
993.141500 -0.306792
993.384100 3.021603
993.626700 0.388764
993.869400 2.760422
994.112000 -0.317672
994.354700 3.165244
994.597300 3.030195
994.840000 -3.072617
995.082600 -0.877928
995.325300 2.269513
995.568000 2.884795
995.810700 -0.689137
996.053400 -0.206330
996.296100 2.827369
996.538800 3.042969
996.781500 0.642224
997.024200 0.023912
997.267000 2.791691
997.509700 0.249156
997.752400 0.239721
997.995200 0.522236
998.237900 2.701568
998.480700 2.890421
998.723500 -2.915400
998.966200 0.040769
999.209000 0.000000
999.451800 1.380642
999.694600 0.660227
999.937400 -0.597337
1000.180200 0.111880
1000.423000 3.101403
1000.665900 2.907949
1000.908700 2.396199
1001.151500 0.403259
1001.394400 2.745075
1001.637200 3.078457
1001.880100 -1.587337
1002.123000 0.311189
1002.365800 2.599883
1002.608700 0.130048
1002.851600 2.913284
1003.094500 3.086360
1003.337400 2.217484
1003.580300 0.000000
1003.823200 2.414973
1004.066100 -0.031763
1004.309100 0.094019
1004.552000 3.008600
1004.794900 2.847573
1005.037900 1.506118
1005.280800 0.481898
1005.523800 -0.158078
1005.766700 2.783904
1006.009700 3.047275
1006.252700 -2.816241
1006.495700 0.145460
1006.738700 0.000000
1006.981700 3.136086
1007.224700 2.653213
1007.467700 2.008600
1007.710700 2.610660
1007.953800 0.542984
1008.196800 0.508510
1008.439800 0.393942
1008.682900 1.068716
1008.925900 0.204953
1009.169000 2.884229
1009.412100 -2.625312
1009.655100 -1.234934
1009.898200 0.059397
1010.141300 2.432969
1010.384400 0.241250
1010.627500 2.550228
1010.870600 0.518841
1011.113700 0.243127
1011.356800 0.173798
1011.600000 -1.687689
1011.843100 -0.489760
1012.086300 0.000000
1012.329400 0.184777
1012.572600 0.000000
1012.815700 -0.296362
1013.058900 0.000000
1013.302100 3.003891
1013.545200 0.790684
1013.788400 0.020091
1014.031600 -2.801404
1014.274800 -0.198745
1014.518000 0.690675
1014.761300 3.177536
1015.004500 -2.227887
1015.247700 -0.176423
1015.490900 -2.403121
1015.734200 0.017604
1015.977400 2.450249
1016.220700 -3.211121
1016.464000 2.853090
1016.707200 2.190332
1016.950500 -0.525776
1017.193800 -0.140882
1017.437100 2.562293
1017.680400 0.129302
1017.923700 2.975891
1018.167000 3.231724
1018.410300 -0.480399
1018.653600 -0.063910
1018.896900 0.520543
1019.140300 0.475100
1019.383600 2.662758
1019.627000 0.228218
1019.870300 2.465383
1020.113700 0.859272
1020.357100 0.549882
1020.600400 1.531479
1020.843800 0.260311
1021.087200 0.290618
1021.330600 -2.603144
1021.574000 0.792023
1021.817400 0.000000
1022.060800 -2.555094
1022.304200 -2.555094
1022.547700 0.234550
1022.791100 0.329166
1023.034500 2.812913
