# Wavelength	Absorbance
197.780200 2.878522
197.984200 0.548113
198.188200 1.003867
198.392200 2.682145
198.596300 2.935507
198.800300 0.309463
199.004400 -0.168161
199.208500 2.866287
199.412600 -0.262316
199.616800 2.768638
199.820900 2.465383
200.025100 0.444978
200.229200 -0.482068
200.433400 0.690537
200.637600 -0.240352
200.841800 0.218956
201.046100 3.008600
201.250300 0.592474
201.454600 3.220892
201.658900 3.051153
201.863100 -0.044260
202.067400 -0.311091
202.271800 0.158265
202.476100 0.253074
202.680500 -0.203230
202.884800 -0.212110
203.089200 3.034628
203.293600 0.122861
203.498000 -0.052858
203.702400 -0.772105
203.906900 1.959041
204.111300 0.000000
204.315800 -0.427589
204.520300 3.062958
204.724800 -0.416610
204.929300 2.396199
205.133800 -0.014793
205.338400 2.820201
205.543000 -0.185738
205.747500 -0.331114
205.952100 -0.500565
206.156700 0.281812
206.361400 -2.975891
206.566000 -0.851497
206.770600 0.545989
206.975300 -0.718792
207.180000 -2.263467
207.384700 -0.211630
207.589400 -2.966142
207.794100 -0.319334
207.998900 -0.363212
208.203600 -0.040279
208.408400 2.970812
208.613200 0.387232
208.818000 1.240272
209.022800 2.414973
209.227600 -0.662100
209.432500 1.129797
209.637300 -0.409449
209.842200 2.294466
210.047100 -0.302753
210.252000 -0.546805
210.456900 0.039085
210.661800 0.737315
210.866800 0.482614
211.071800 3.104487
211.276700 -0.247994
211.481700 0.958245
211.686700 0.362944
211.891800 -0.119876
212.096800 0.870877
212.301800 0.011899
212.506900 0.146450
212.712000 2.965672
212.917100 0.604128
213.122200 0.548224
213.327300 -0.000261
213.532500 -2.643453
213.737600 0.000000
213.942800 -1.337459
214.148000 0.853293
214.353200 0.000000
214.558400 1.700896
214.763600 3.265290
214.968900 0.988041
215.174100 0.580741
215.379400 -2.683047
215.584700 -0.208423
215.790000 -0.215690
215.995300 0.067385
216.200700 0.142479
216.406000 0.326815
216.611400 0.679226
216.816800 -0.032503
217.022200 -0.269245
217.227600 0.511172
217.433000 -0.662099
217.638400 3.047275
217.843900 2.700704
218.049400 -2.643453
218.254800 -0.052891
218.460300 3.008600
218.665900 0.522973
218.871400 1.076155
219.076900 0.205722
219.282500 -0.125769
219.488100 -0.068336
219.693600 -0.172265
219.899200 0.869701
220.104900 0.411926
220.310500 2.158362
220.516100 0.000000
220.721800 -0.348997
220.927500 0.407444
221.133200 2.902003
221.338900 0.326815
221.544600 -0.208423
221.750300 0.688010
221.956100 0.898811
222.161800 0.747392
222.367600 -0.378972
222.573400 -0.235069
222.779200 -2.599883
222.985000 -2.465383
223.190900 0.467222
223.396700 2.621176
223.602600 -0.333684
223.808500 0.186168
224.014400 -0.327001
224.220300 -0.226758
224.426200 -0.302684
224.632200 0.569179
224.838100 2.890421
225.044100 0.335149
225.250100 -0.186168
225.456100 2.653213
225.662100 -0.439057
225.868100 2.127105
226.074200 -0.362739
226.280200 0.000000
226.486300 0.006222
226.692400 -3.086716
226.898500 0.070804
227.104600 2.294466
227.310700 3.111934
227.516900 2.833784
227.723000 -0.834891
227.929200 0.072154
228.135400 0.089390
228.341600 2.622214
228.547800 0.060952
228.754100 0.163158
228.960300 2.245513
229.166600 -3.063333
229.372900 0.999464
229.579100 -0.130534
229.785500 -0.364252
229.991800 -2.185502
230.198100 0.284205
230.404500 -0.971719
230.610800 -0.026709
230.817200 0.000000
231.023600 0.800516
231.230000 -0.219500
231.436400 0.656744
231.642900 0.940350
231.849300 1.200626
232.055800 -0.986596
232.262300 0.597076
232.468800 1.959041
232.675300 0.484084
232.881800 1.008818
233.088400 -0.190432
233.294900 2.550228
233.501500 2.902003
233.708100 -2.799341
233.914700 -0.493428
234.121300 0.000000
234.327900 -0.409973
234.534600 -0.263816
234.741300 3.097604
234.947900 0.092944
235.154600 1.397599
235.361300 0.091944
235.568000 0.237398
235.774800 -0.473646
235.981500 0.202457
236.188300 -2.550228
236.395100 2.999565
236.601800 -2.495544
236.808700 2.960946
237.015500 0.005253
237.222300 -0.060116
237.429200 0.601589
237.636000 0.724906
237.842900 -1.445626
238.049800 -0.047587
238.256700 -0.599883
238.463600 0.041318
238.670600 0.348598
238.877500 0.409150
239.084500 -2.902547
239.291500 0.323795
239.498500 -0.553828
239.705500 0.325389
239.912500 -1.045323
240.119500 -1.519855
240.326600 0.181732
240.533700 -2.956168
240.740700 -0.206193
240.947800 -0.004857
241.154900 0.900822
241.362100 0.229705
241.569200 -0.181124
241.776400 2.999131
241.983500 -0.015437
242.190700 0.741443
242.397900 0.000000
242.605100 -0.145228
242.812400 0.579111
243.019600 0.163112
243.226900 -0.074500
243.434100 0.085915
243.641400 0.518913
243.848700 1.421773
244.056000 -1.908485
244.263400 -0.292748
244.470700 0.649816
244.678100 0.241693
244.885400 2.945469
245.092800 2.682145
245.300200 2.357935
245.507600 1.738943
245.715100 3.034628
245.922500 3.026125
246.130000 1.230449
246.337500 0.447158
246.544900 -0.417382
246.752400 3.362859
246.960000 3.165244
247.167500 0.290577
247.375000 -2.008600
247.582600 0.627775
247.790200 -0.874233
247.997800 0.226375
248.205400 3.262925
248.413000 0.229286
248.620600 -0.197255
248.828300 0.198699
249.035900 1.252448
249.243600 -0.116279
249.451300 3.282396
249.659000 0.393227
249.866700 1.159603
250.074500 0.076815
250.282200 3.189490
250.490000 0.399389
250.697800 2.846955
250.905600 -0.542009
251.113400 -0.065267
251.321200 0.827911
251.529000 -1.107010
251.736900 0.475969
251.944700 1.096769
252.152600 0.167045
252.360500 -0.647055
252.568400 0.344694
252.776300 0.128427
252.984300 -0.227365
253.192200 -0.045173
253.400200 0.335120
253.608200 0.691398
253.816200 0.316254
254.024200 0.655255
254.232200 2.414973
254.440200 0.000000
254.648300 -0.196764
254.856400 -0.454375
255.064400 2.775974
255.272500 3.097604
255.480600 0.581082
255.688800 -2.465383
255.896900 0.534650
256.105100 2.029609
256.313200 -0.369727
256.521400 -0.128799
256.729600 0.256338
256.937800 3.171434
257.146000 2.902003
257.354300 0.000000
257.562500 3.204120
257.770800 0.000000
257.979100 0.381765
258.187400 0.515721
258.395700 0.283445
258.604000 0.207259
258.812400 -0.047064
259.020700 3.026125
259.229100 -0.143521
259.437500 0.452145
259.645900 0.055367
259.854300 1.100371
260.062700 0.159340
260.271100 -0.374020
260.479600 -0.031763
260.688100 -0.101408
260.896500 0.362432
261.105000 -0.788617
261.313500 -0.583215
261.522100 3.142702
261.730600 -0.162604
261.939200 0.341733
262.147700 0.023753
262.356300 -0.250122
262.564900 -0.304175
262.773500 -0.164102
262.982200 0.496814
263.190800 -2.995196
263.399500 0.271319
263.608100 3.039017
263.816800 0.250011
264.025500 -0.589227
264.234200 0.567298
264.442900 -0.412304
264.651700 -0.123549
264.860400 0.229789
265.069200 -0.035563
265.278000 2.990339
265.486800 0.122193
265.695600 -0.544947
265.904400 -0.281128
266.113300 -0.536520
266.322100 0.597951
266.531000 -0.546267
266.739900 -0.821144
266.948800 0.235385
267.157700 0.389251
267.366600 -0.106887
267.575500 -0.316270
267.784500 -0.742028
267.993500 -0.328908
268.202400 -0.191454
268.411400 3.021603
268.620500 2.761176
268.829500 -0.367040
269.038500 -0.955330
269.247600 0.154023
269.456600 0.000000
269.665700 -0.344809
269.874800 0.547576
270.083900 0.250951
270.293100 -2.924796
270.502200 0.765116
270.711400 -0.555942
270.920500 -0.237729
271.129700 0.827064
271.338900 0.396279
271.548100 -0.135404
271.757300 3.030195
271.966600 2.890421
272.175800 0.230334
272.385100 0.449533
272.594400 0.056998
272.803700 3.021603
273.013000 2.799341
273.222300 0.676694
273.431600 0.565361
273.641000 3.209783
273.850400 0.058115
274.059700 0.856056
274.269100 0.891452
274.478500 0.084564
274.688000 0.034028
274.897400 2.866287
275.106900 -1.354896
275.316300 3.055378
275.525800 0.297694
275.735300 -3.174641
275.944800 -0.064928
276.154300 -0.038810
276.363900 -0.149428
276.573400 0.442166
276.783000 0.875767
276.992600 2.846955
277.202200 0.122479
277.411800 -0.265987
277.621400 2.727541
277.831000 3.118595
278.040700 3.177536
278.250300 2.820201
278.460000 0.335624
278.669700 2.980458
278.879400 0.163456
279.089100 -0.060851
279.298900 -0.117345
279.508600 -0.110688
279.718400 0.250754
279.928100 -2.089905
280.137900 3.215373
280.347700 2.632457
280.557600 0.107248
280.767400 -0.008258
280.977200 0.102779
281.187100 0.000000
281.397000 0.691965
281.606900 0.000000
281.816800 -0.204884
282.026700 -0.394882
282.236600 2.935003
282.446600 0.280827
282.656500 -1.255273
282.866500 0.090123
283.076500 -0.397940
283.286500 0.084678
283.496500 3.030600
283.706500 0.998926
283.916600 0.081670
284.126600 0.845098
284.336700 0.099854
284.546800 0.679226
284.756900 -0.136550
284.967000 1.118375
285.177100 -0.131672
285.387300 -2.663701
285.597400 -0.098577
285.807600 2.127105
286.017800 0.328104
286.228000 -3.204391
286.438200 0.317736
286.648400 0.365329
286.858700 0.055239
287.068900 -0.401843
287.279200 -0.239760
287.489500 -0.017996
287.699800 3.158965
287.910100 -0.719664
288.120400 -0.313886
288.330800 2.220108
288.541100 0.142903
288.751500 2.217484
288.961900 -0.423711
289.172300 -2.902547
289.382700 -0.111857
289.593100 0.010737
289.803500 0.000000
290.014000 -0.175485
290.224500 -0.027531
290.434900 -3.055378
290.645400 -0.220418
290.855900 -0.496314
291.066500 0.150932
291.277000 -0.158254
291.487500 0.303255
291.698100 2.768638
291.908700 -0.304996
292.119300 0.011910
292.329900 0.140422
292.540500 2.728354
292.751100 -0.074431
292.961800 0.000000
293.172400 -0.209320
293.383100 -2.853698
293.593800 1.739484
293.804500 2.495544
294.015200 -0.267515
294.226000 -2.465383
294.436700 -0.014240
294.647500 0.433318
294.858200 0.208529
295.069000 0.256038
295.279800 0.017065
295.490600 -2.599883
295.701500 0.028585
295.912300 3.082785
296.123200 0.032090
296.334000 -0.216176
296.544900 0.215405
296.755800 3.220892
296.966700 -0.290109
297.177700 2.945961
297.388600 -0.060193
297.599500 2.269513
297.810500 3.090258
298.021500 3.149219
298.232500 3.155640
298.443500 1.690196
298.654500 0.817701
298.865600 0.179846
299.076600 0.404730
299.287700 0.000000
299.498800 -0.131315
299.709900 2.902003
299.921000 -0.052836
300.132100 0.319289
300.343200 3.270446
300.554400 0.219149
300.765500 0.231484
300.976700 -1.255273
301.187900 3.104487
301.399100 0.804981
301.610300 0.663985
301.821500 0.628342
302.032800 0.277118
302.244100 3.017451
302.455300 -0.070893
302.666600 1.154848
302.877900 0.070399
303.089200 2.357935
303.300600 0.108380
303.511900 2.970812
303.723300 -0.122996
303.934600 2.884795
304.146000 -2.100863
304.357400 2.432969
304.568800 2.846955
304.780300 0.083724
304.991700 0.048221
305.203100 0.113479
305.414600 0.732999
305.626100 -0.651494
305.837600 0.578910
306.049100 2.775974
306.260600 0.137339
306.472200 -0.720629
306.683700 2.945961
306.895300 2.575188
307.106900 0.160211
307.318400 3.034628
307.530100 0.240448
307.741700 0.104612
307.953300 3.332236
308.165000 0.000000
308.376600 3.265290
308.588300 0.924230
308.800000 0.510481
309.011700 0.219912
309.223400 0.525923
309.435100 2.450249
309.646900 -0.095401
309.858600 3.054996
310.070400 0.769210
310.282200 1.447158
310.494000 0.791585
310.705800 3.168203
310.917600 0.025259
311.129500 0.026525
311.341300 0.978382
311.553200 3.180413
311.765100 0.779414
311.977000 0.147506
312.188900 0.109285
312.400800 0.813116
312.612700 -0.116530
312.824700 0.464665
313.036600 0.359625
313.248600 3.332034
313.460600 0.601625
313.672600 0.421383
313.884600 1.831087
314.096700 -0.063818
314.308700 0.381840
314.520800 1.326677
314.732800 0.170798
314.944900 0.332547
315.157000 0.897476
315.369200 0.329969
315.581300 3.082785
315.793400 0.053329
316.005600 0.412761
316.217700 3.168203
316.429900 0.658887
316.642100 3.168203
316.854300 -0.116279
317.066600 0.998062
317.278800 0.236440
317.491100 3.192289
317.703300 0.583443
317.915600 3.296446
318.127900 0.845877
318.340200 3.097604
318.552500 0.655389
318.764900 0.183081
318.977200 0.154970
319.189600 0.386742
319.401900 3.427324
319.614300 3.245019
319.826700 0.236120
320.039200 0.999051
320.251600 3.303412
320.464000 0.870877
320.676500 3.265290
320.889000 2.465383
321.101400 0.446342
321.313900 0.456570
321.526500 0.873347
321.739000 3.376577
321.951500 3.472903
322.164100 0.016969
322.376600 0.475020
322.589200 3.362859
322.801800 0.305752
323.014400 0.198706
323.227000 0.754993
323.439700 3.437433
323.652300 0.568745
323.865000 0.335731
324.077700 0.553787
324.290400 0.912328
324.503100 1.220217
324.715800 3.399154
324.928500 0.626357
325.141200 3.384174
325.354000 0.454398
325.566800 3.389875
325.779600 3.531990
325.992400 3.314710
326.205200 0.640030
326.418000 0.978818
326.630800 0.615353
326.843700 0.587737
327.056600 0.638266
327.269400 1.825909
327.482300 0.653468
327.695200 0.020850
327.908200 0.445062
328.121100 0.529134
328.334000 0.316833
328.547000 2.381416
328.760000 0.260159
328.973000 3.578983
329.186000 0.559990
329.399000 0.543369
329.612000 0.996338
329.825100 1.894089
330.038100 0.455353
330.251200 1.107489
330.464300 1.162753
330.677400 3.635484
330.890500 1.731051
331.103600 3.526469
331.316700 1.066782
331.529900 0.994597
331.743100 0.553279
331.956200 0.657018
332.169400 0.601945
332.382600 3.520876
332.595900 0.784431
332.809100 0.600445
333.022300 0.582348
333.235600 2.042404
333.448900 0.407261
333.662200 0.810040
333.875500 3.666331
334.088800 3.518251
334.302100 1.650615
334.515400 1.488727
334.728800 0.828290
334.942200 1.308893
335.155500 0.614099
335.368900 0.957524
335.582300 0.518335
335.795800 1.101780
336.009200 0.777681
336.222700 0.418264
336.436100 0.749367
336.649600 0.597292
336.863100 3.676053
337.076600 0.692914
337.290100 0.353109
337.503600 3.672098
337.717200 0.414309
337.930700 3.722716
338.144300 0.750437
338.357900 0.690148
338.571500 3.715669
338.785100 0.624024
338.998700 0.590204
339.212400 3.815312
339.426000 0.821723
339.639700 3.667266
339.853300 1.405759
340.067000 0.572891
340.280700 1.447531
340.494500 3.790074
340.708200 0.636978
340.921900 1.095076
341.135700 0.711348
341.349500 3.731266
341.563300 0.687706
341.777100 3.818094
341.990900 1.280937
342.204700 3.816042
342.418500 1.015534
342.632400 0.976762
342.846300 0.985465
343.060100 1.475539
343.274000 0.723633
343.487900 1.005461
343.701900 0.602617
343.915800 3.793022
344.129700 0.995089
344.343700 3.778006
344.557700 1.167498
344.771700 3.809694
344.985700 0.704451
345.199700 0.779106
345.413700 2.317849
345.627700 1.423496
345.841800 3.870521
346.055900 0.849802
346.269900 1.041275
346.484000 3.898615
346.698100 1.161985
346.912300 3.850340
347.126400 0.811890
347.340600 3.899164
347.554700 0.852664
347.768900 1.420939
347.983100 0.805654
348.197300 3.889246
348.411500 3.880871
348.625700 1.468820
348.840000 0.942447
349.054200 1.767723
349.268500 0.881375
349.482800 3.888011
349.697100 0.806024
349.911400 3.877832
350.125700 0.767556
350.340000 3.937869
350.554400 2.374936
350.768700 1.143429
350.983100 0.490172
351.197500 3.889246
351.411900 3.984437
351.626300 1.127548
351.840700 1.387844
352.055200 3.931966
352.269600 3.959471
352.484100 1.072330
352.698600 0.803398
352.913100 3.896857
353.127600 3.993348
353.342100 1.211870
353.556600 0.851698
353.771200 4.007534
353.985800 1.077356
354.200300 3.930898
354.414900 3.981093
354.629500 0.791532
354.844100 1.372059
355.058800 0.967557
355.273400 1.234972
355.488100 0.833195
355.702700 0.996251
355.917400 0.934598
356.132100 4.015527
356.346800 3.982000
356.561500 1.404481
356.776300 3.974327
356.991000 0.817217
357.205800 1.202647
357.420600 0.932824
357.635300 2.073560
357.850100 2.763345
358.065000 0.799367
358.279800 1.078002
358.494600 3.959995
358.709500 1.276483
358.924300 3.975799
359.139200 1.034894
359.354100 0.993006
359.569000 0.936021
359.783900 1.463517
359.998900 1.032668
360.213800 0.997931
360.428800 0.711456
360.643800 1.318796
360.858700 0.938930
361.073700 1.094088
361.288800 1.076000
361.503800 1.808968
361.718800 1.275865
361.933900 4.009323
362.148900 1.217526
362.364000 0.832447
362.579100 1.379798
362.794200 2.094501
363.009300 4.072250
363.224500 4.031206
363.439600 0.968902
363.654800 0.797697
363.869900 0.790872
364.085100 0.997931
364.300300 1.309114
364.515500 4.049102
364.730800 1.703010
364.946000 0.961486
365.161200 1.404873
365.376500 4.086360
365.591800 0.975623
365.807100 0.957069
366.022400 0.764191
366.237700 4.078022
366.453000 0.950065
366.668400 1.489492
366.883700 0.871066
367.099100 0.976219
367.314500 0.881577
367.529900 1.536343
367.745300 1.179170
367.960700 1.931013
368.176100 1.279490
368.391600 1.211429
368.607000 0.810640
368.822500 4.111901
369.038000 2.241688
369.253500 1.087146
369.469000 4.123721
369.684500 1.777139
369.900100 1.297089
370.115600 1.177505
370.331200 1.219325
370.546800 1.276640
370.762400 1.029862
370.978000 1.508107
371.193600 1.213930
371.409200 4.124798
371.624900 1.017694
371.840500 1.167870
372.056200 0.913923
372.271900 4.101128
372.487600 1.339450
372.703300 4.129915
372.919000 1.056944
373.134800 1.124412
373.350500 1.167493
373.566300 4.154637
373.782000 4.160709
373.997800 1.899985
374.213600 1.038570
374.429400 2.576548
374.645300 1.739524
374.861100 1.111939
375.077000 0.966135
375.292800 1.226161
375.508700 1.002190
375.724600 4.210586
375.940500 1.643216
376.156400 1.759073
376.372400 1.049800
376.588300 1.643479
376.804300 1.066222
377.020300 4.247581
377.236200 1.272899
377.452200 1.054179
377.668200 4.261620
377.884300 1.490980
378.100300 1.248944
378.316400 1.315988
378.532400 0.788726
378.748500 1.009100
378.964600 1.762224
379.180700 4.308394
379.396800 1.097035
379.612900 4.277861
379.829100 1.875424
380.045200 4.285760
380.261400 1.997928
380.477600 4.319085
380.693800 1.293875
380.910000 1.621806
381.126200 1.100501
381.342400 4.319959
381.558700 1.262651
381.774900 4.288607
381.991200 2.395833
382.207500 1.714785
382.423800 0.989971
382.640100 1.302536
382.856400 4.341336
383.072800 4.319502
383.289100 2.192680
383.505500 1.811711
383.721900 1.484155
383.938200 2.021408
384.154600 1.229489
384.371100 1.100486
384.587500 1.326776
384.803900 1.744676
385.020400 1.859965
385.236800 1.361136
385.453300 4.374308
385.669800 4.340702
385.886300 4.360745
386.102800 1.251555
386.319400 1.067158
386.535900 4.371972
386.752500 1.189924
386.969000 1.554092
387.185600 1.395982
387.402200 1.876463
387.618800 2.391972
387.835500 1.203789
388.052100 1.268194
388.268700 1.201262
388.485400 1.134650
388.702100 1.615566
388.918800 1.488568
389.135500 1.228477
389.352200 1.369783
389.568900 1.530727
389.785600 1.372350
390.002400 1.389999
390.219200 1.115207
390.435900 1.267813
390.652700 1.166759
390.869500 1.205911
391.086300 1.438670
391.303200 1.464675
391.520000 1.122846
391.736900 1.160296
391.953700 1.107131
392.170600 1.191932
392.387500 1.133138
392.604400 1.030553
392.821300 0.989195
393.038300 1.088998
393.255200 1.009138
393.472200 1.037442
393.689100 0.868558
393.906100 0.976731
394.123100 1.144020
394.340100 1.009763
394.557200 1.023553
394.774200 0.950357
394.991200 1.048231
395.208300 1.146769
395.425400 0.854528
395.642500 1.138066
395.859600 0.909649
396.076700 1.108172
396.293800 0.735180
396.510900 0.770159
396.728100 0.959344
396.945300 1.003265
397.162400 0.875136
397.379600 0.760186
397.596800 0.819103
397.814000 0.818748
398.031300 0.813994
398.248500 0.725200
398.465800 0.709356
398.683000 0.813667
398.900300 0.789744
399.117600 0.703999
399.334900 0.725285
399.552200 0.759633
399.769600 0.714753
399.986900 0.759201
400.204300 0.783449
400.421600 0.807163
400.639000 0.655330
400.856400 0.720448
401.073800 0.621066
401.291200 0.764855
401.508700 0.586484
401.726100 0.692808
401.943600 0.685802
402.161000 0.643500
402.378500 0.643315
402.596000 0.686557
402.813500 0.635923
403.031000 0.670769
403.248600 0.601634
403.466100 0.683723
403.683700 0.610654
403.901300 0.626337
404.118900 0.630392
404.336500 0.561405
404.554100 0.556641
404.771700 0.604355
404.989300 0.550390
405.207000 0.556200
405.424600 0.520649
405.642300 0.598001
405.860000 0.607071
406.077700 0.503907
406.295400 0.545424
406.513100 0.575373
406.730900 0.469324
406.948600 0.487951
407.166400 0.585001
407.384200 0.508798
407.602000 0.507618
407.819800 0.466138
408.037600 0.498044
408.255400 0.475086
408.473300 0.494547
408.691100 0.455348
408.909000 0.493911
409.126900 0.443279
409.344800 0.444026
409.562700 0.518769
409.780600 0.516578
409.998500 0.425071
410.216500 0.440914
410.434400 0.493973
410.652400 0.491312
410.870400 0.469620
411.088400 0.456783
411.306400 0.438481
411.524400 0.479952
411.742400 0.417045
411.960500 0.440083
412.178500 0.428092
412.396600 0.414746
412.614700 0.427348
412.832800 0.395657
413.050900 0.422442
413.269000 0.403663
413.487100 0.405642
413.705300 0.410717
413.923400 0.446165
414.141600 0.401849
414.359800 0.389348
414.578000 0.406422
414.796200 0.348271
415.014400 0.394495
415.232600 0.358433
415.450900 0.396460
415.669200 0.370072
415.887400 0.383711
416.105700 0.384938
416.324000 0.380094
416.542300 0.350414
416.760600 0.348860
416.979000 0.321966
417.197300 0.433297
417.415700 0.353051
417.634100 0.323364
417.852400 0.377270
418.070800 0.331898
418.289300 0.331944
418.507700 0.385586
418.726100 0.319236
418.944600 0.316281
419.163000 0.324991
419.381500 0.341916
419.600000 0.361452
419.818500 0.301784
420.037000 0.312352
420.255500 0.324300
420.474100 0.329236
420.692600 0.345466
420.911200 0.319381
421.129800 0.328000
421.348300 0.338789
421.566900 0.318976
421.785600 0.320859
422.004200 0.316201
422.222800 0.314435
422.441500 0.339842
422.660100 0.316727
422.878800 0.316463
423.097500 0.300575
423.316200 0.273416
423.534900 0.297675
423.753600 0.308223
423.972400 0.316774
424.191100 0.298587
424.409900 0.306933
424.628700 0.284415
424.847500 0.294042
425.066300 0.309174
425.285100 0.303624
425.503900 0.294995
425.722800 0.286508
425.941600 0.262136
426.160500 0.288270
426.379300 0.313844
426.598200 0.274968
426.817100 0.246344
427.036100 0.283890
427.255000 0.279192
427.473900 0.268880
427.692900 0.331515
427.911800 0.279222
428.130800 0.261310
428.349800 0.298884
428.568800 0.299663
428.787800 0.264579
429.006800 0.287324
429.225900 0.292695
429.444900 0.318526
429.664000 0.272783
429.883100 0.267771
430.102200 0.279869
430.321300 0.288963
430.540400 0.279447
430.759500 0.271941
430.978700 0.290802
431.197800 0.333809
431.417000 0.258907
431.636200 0.258328
431.855300 0.247033
432.074500 0.240484
432.293800 0.271060
432.513000 0.274753
432.732200 0.228276
432.951500 0.287991
433.170700 0.299198
433.390000 0.290715
433.609300 0.271477
433.828600 0.334525
434.047900 0.261520
434.267300 0.298487
434.486600 0.242677
434.705900 0.279875
434.925300 0.270358
435.144700 0.258716
435.364100 0.267858
435.583500 0.275292
435.802900 0.267308
436.022300 0.268603
436.241800 0.326738
436.461200 0.294256
436.680700 0.273635
436.900100 0.299269
437.119600 0.268953
437.339100 0.288448
437.558600 0.291223
437.778200 0.282816
437.997700 0.274810
438.217300 0.281958
438.436800 0.230485
438.656400 0.309558
438.876000 0.260254
439.095600 0.263761
439.315200 0.266511
439.534800 0.277925
439.754500 0.241289
439.974100 0.329591
440.193800 0.276340
440.413500 0.343702
440.633100 0.310460
440.852800 0.277408
441.072500 0.313493
441.292300 0.297688
441.512000 0.275318
441.731800 0.309141
441.951500 0.287104
442.171300 0.322316
442.391100 0.294751
442.610900 0.307931
442.830700 0.314499
443.050500 0.289002
443.270300 0.317085
443.490200 0.268443
443.710100 0.289443
443.929900 0.271349
444.149800 0.275611
444.369700 0.300442
444.589600 0.271888
444.809500 0.289828
445.029500 0.330982
445.249400 0.333100
445.469400 0.298351
445.689400 0.296711
445.909300 0.320172
446.129300 0.326695
446.349300 0.346358
446.569400 0.312979
446.789400 0.339731
447.009400 0.343463
447.229500 0.319857
447.449600 0.332872
447.669600 0.291897
447.889700 0.300785
448.109800 0.319741
448.330000 0.330972
448.550100 0.327246
448.770200 0.356755
448.990400 0.343971
449.210600 0.327177
449.430700 0.330412
449.650900 0.327251
449.871100 0.328962
450.091400 0.312950
450.311600 0.355015
450.531800 0.355113
450.752100 0.353103
450.972400 0.351621
451.192600 0.362619
451.412900 0.389441
451.633200 0.349802
451.853500 0.350038
452.073900 0.342895
452.294200 0.393379
452.514600 0.361936
452.734900 0.324317
452.955300 0.360637
453.175700 0.387048
453.396100 0.385212
453.616500 0.377388
453.836900 0.398380
454.057400 0.356572
454.277800 0.364852
454.498300 0.381119
454.718800 0.348186
454.939300 0.393165
455.159700 0.391350
455.380300 0.399735
455.600800 0.410943
455.821300 0.406758
456.041900 0.397229
456.262400 0.412338
456.483000 0.401647
456.703600 0.401911
456.924200 0.482591
457.144800 0.421472
457.365400 0.449398
457.586000 0.428746
457.806700 0.409359
458.027400 0.412966
458.248000 0.417823
458.468700 0.471784
458.689400 0.426135
458.910100 0.451204
459.130800 0.433089
459.351600 0.399840
459.572300 0.451150
459.793100 0.459118
460.013800 0.461485
460.234600 0.477692
460.455400 0.436401
460.676200 0.419397
460.897000 0.420715
461.117800 0.527955
461.338700 0.494830
461.559500 0.479945
461.780400 0.460089
462.001300 0.534633
462.222200 0.451600
462.443100 0.543066
462.664000 0.500623
462.884900 0.543059
463.105900 0.510930
463.326800 0.472607
463.547800 0.516903
463.768700 0.517312
463.989700 0.537755
464.210700 0.517577
464.431700 0.489094
464.652800 0.530932
464.873800 0.557536
465.094800 0.545808
465.315900 0.550956
465.537000 0.545603
465.758100 0.538387
465.979200 0.540854
466.200300 0.574618
466.421400 0.563604
466.642500 0.494199
466.863700 0.663546
467.084800 0.570563
467.306000 0.570729
467.527200 0.615607
467.748400 0.555276
467.969600 0.590148
468.190800 0.580591
468.412000 0.608151
468.633300 0.655821
468.854500 0.588455
469.075800 0.662128
469.297000 0.642412
469.518300 0.621831
469.739600 0.581973
469.961000 0.569581
470.182300 0.538316
470.403600 0.596428
470.625000 0.651278
470.846300 0.596741
471.067700 0.664201
471.289100 0.658996
471.510500 0.621493
471.731900 0.605549
471.953300 0.663705
472.174800 0.645500
472.396200 0.695001
472.617700 0.685112
472.839100 0.621732
473.060600 0.674485
473.282100 0.709423
473.503600 0.618113
473.725100 0.773422
473.946700 0.723328
474.168200 0.661543
474.389800 0.660503
474.611300 0.737086
474.832900 0.795354
475.054500 0.748379
475.276100 0.751132
475.497700 0.731740
475.719300 0.754412
475.941000 0.687493
476.162600 0.743848
476.384300 0.676263
476.606000 0.802623
476.827700 0.791138
477.049400 0.746610
477.271100 0.737896
477.492800 0.802009
477.714500 0.816157
477.936300 0.813086
478.158000 0.763533
478.379800 0.851326
478.601600 0.753474
478.823400 0.755550
479.045200 0.836354
479.267000 0.783398
479.488800 0.818961
479.710700 0.835092
479.932500 0.894789
480.154400 0.824877
480.376300 0.785892
480.598200 0.857505
480.820100 0.813810
481.042000 0.772789
481.263900 0.899154
481.485900 0.814766
481.707800 0.785973
481.929800 0.911390
482.151700 0.932846
482.373700 0.881208
482.595700 0.882525
482.817700 1.064235
483.039800 0.835443
483.261800 0.858357
483.483800 0.937483
483.705900 0.933319
483.928000 0.920606
484.150100 0.955066
484.372100 0.903243
484.594300 0.901404
484.816400 0.985725
485.038500 0.977828
485.260600 0.917314
485.482800 0.927907
485.705000 0.995444
485.927100 1.023506
486.149300 0.998932
486.371500 0.981222
486.593700 0.978460
486.816000 1.023860
487.038200 0.965861
487.260500 0.958688
487.482700 0.993281
487.705000 0.916967
487.927300 0.995243
488.149600 1.020998
488.371900 0.926442
488.594200 0.975782
488.816500 0.971886
489.038900 0.917916
489.261200 0.944719
489.483600 1.122908
489.706000 1.088713
489.928400 1.044363
490.150800 1.285744
490.373200 0.978298
490.595600 1.082225
490.818000 1.021296
491.040500 1.027949
491.263000 1.182651
491.485400 1.004989
491.707900 0.996538
491.930400 1.139009
492.152900 1.043600
492.375500 1.024023
492.598000 1.194996
492.820500 1.097675
493.043100 1.113278
493.265700 1.134164
493.488200 1.061347
493.710800 1.042080
493.933400 1.028818
494.156100 1.001504
494.378700 1.018533
494.601300 1.146500
494.824000 1.002958
495.046600 1.199297
495.269300 0.986860
495.492000 1.058300
495.714700 1.058022
495.937400 1.166087
496.160100 1.111691
496.382900 1.179772
496.605600 0.960462
496.828400 1.199875
497.051100 1.174511
497.273900 1.115429
497.496700 0.961853
497.719500 1.130560
497.942300 1.028140
498.165200 1.294374
498.388000 1.063270
498.610900 1.169285
498.833700 1.106016
499.056600 1.141593
499.279500 1.131938
499.502400 1.333575
499.725300 1.140211
499.948200 1.210501
500.171200 1.045540
500.394100 1.256302
500.617100 1.226917
500.840000 1.082971
501.063000 1.146301
501.286000 1.087731
501.509000 1.181929
501.732000 1.102743
501.955100 1.104846
502.178100 1.307312
502.401200 1.122522
502.624200 1.116176
502.847300 1.247330
503.070400 1.245143
503.293500 1.162698
503.516600 1.089095
503.739700 1.123719
503.962800 1.357678
504.186000 1.034662
504.409200 1.310079
504.632300 1.081594
504.855500 1.259768
505.078700 1.214762
505.301900 1.086661
505.525100 1.249496
505.748300 1.270830
505.971600 1.143369
506.194800 1.109148
506.418100 1.171406
506.641400 1.506973
506.864700 1.155928
507.088000 1.133652
507.311300 1.057171
507.534600 1.046332
507.757900 1.219882
507.981300 1.173249
508.204600 1.193899
508.428000 1.644615
508.651400 1.301261
508.874800 1.153458
509.098200 1.014232
509.321600 1.377802
509.545000 1.287961
509.768500 1.703651
509.991900 1.118413
510.215400 1.229129
510.438800 1.161934
510.662300 1.072053
510.885800 0.996515
511.109300 1.529973
511.332900 1.228187
511.556400 1.303706
511.779900 1.191220
512.003500 1.483557
512.227000 1.201266
512.450600 1.062881
512.674200 1.168544
512.897800 1.029784
513.121400 1.163197
513.345100 1.131153
513.568700 1.032715
513.792300 1.198719
514.016000 1.029788
514.239700 1.029138
514.463400 1.087738
514.687100 1.152263
514.910800 1.150690
515.134500 1.317735
515.358200 0.980055
515.581900 1.174169
515.805700 1.177077
516.029500 1.212941
516.253200 1.261200
516.477000 1.067209
516.700800 1.047297
516.924600 1.064327
517.148500 0.887144
517.372300 1.118182
517.596100 0.974380
517.820000 1.139266
518.043900 1.176429
518.267700 1.094138
518.491600 1.010458
518.715500 1.100035
518.939500 1.067114
519.163400 1.071147
519.387300 0.913025
519.611300 1.100046
519.835200 0.883033
520.059200 1.046255
520.283200 1.093591
520.507200 1.084108
520.731200 0.979111
520.955200 1.075122
521.179200 0.981150
521.403300 0.970193
521.627300 1.089945
521.851400 0.993514
522.075500 1.122524
522.299600 1.030793
522.523700 1.263225
522.747800 1.121417
522.971900 1.010679
523.196000 0.933609
523.420200 0.941084
523.644300 0.958225
523.868500 1.199376
524.092700 0.990837
524.316900 0.935455
524.541100 1.118910
524.765300 1.064056
524.989500 0.913332
525.213800 0.886231
525.438000 0.830069
525.662300 0.914084
525.886500 0.906823
526.110800 0.975846
526.335100 0.794733
526.559400 1.208727
526.783700 0.828173
527.008100 0.869158
527.232400 0.878131
527.456800 0.998164
527.681100 0.950698
527.905500 0.983947
528.129900 0.984896
528.354300 0.865925
528.578700 0.907329
528.803100 0.900584
529.027600 0.901807
529.252000 0.924630
529.476500 0.932347
529.700900 0.892704
529.925400 0.769746
530.149900 0.804035
530.374400 0.889984
530.598900 0.885211
530.823400 0.835118
531.048000 0.843480
531.272500 0.917213
531.497100 0.834633
531.721700 0.830368
531.946200 0.829420
532.170800 0.751973
532.395400 0.787329
532.620000 0.730716
532.844700 0.731752
533.069300 0.854845
533.294000 0.820014
533.518600 0.779078
533.743300 0.873119
533.968000 0.718225
534.192700 0.788049
534.417400 0.807867
534.642100 0.822390
534.866800 0.722689
535.091600 0.686544
535.316300 0.697422
535.541100 0.807651
535.765900 0.707146
535.990700 0.752808
536.215500 0.657579
536.440300 0.755806
536.665100 0.638129
536.889900 0.712929
537.114800 0.632385
537.339600 0.699817
537.564500 0.702273
537.789400 0.774594
538.014300 0.684943
538.239200 0.770201
538.464100 0.666890
538.689000 0.654849
538.913900 0.630904
539.138900 0.664504
539.363800 0.679425
539.588800 0.683194
539.813800 0.688953
540.038800 0.665464
540.263800 0.599668
540.488800 0.738517
540.713800 0.646346
540.938900 0.592578
541.163900 0.635382
541.389000 0.601573
541.614000 0.611053
541.839100 0.585554
542.064200 0.587471
542.289300 0.583610
542.514400 0.617921
542.739600 0.561000
542.964700 0.590611
543.189900 0.592264
543.415000 0.581183
543.640200 0.618206
543.865400 0.604739
544.090600 0.561977
544.315800 0.531397
544.541000 0.622209
544.766200 0.529689
544.991500 0.536340
545.216700 0.510715
545.442000 0.513184
545.667300 0.516282
545.892600 0.559261
546.117900 0.485197
546.343200 0.524250
546.568500 0.515854
546.793800 0.538660
547.019200 0.457249
547.244500 0.495215
547.469900 0.447834
547.695300 0.489003
547.920600 0.467148
548.146000 0.485621
548.371500 0.443621
548.596900 0.427094
548.822300 0.458409
549.047800 0.423232
549.273200 0.401463
549.498700 0.402027
549.724200 0.448430
549.949600 0.502630
550.175100 0.409642
550.400700 0.378536
550.626200 0.424035
550.851700 0.412141
551.077300 0.380650
551.302800 0.427970
551.528400 0.365178
551.754000 0.417156
551.979600 0.420678
552.205200 0.401311
552.430800 0.377816
552.656400 0.404402
552.882000 0.399938
553.107700 0.364730
553.333300 0.356014
553.559000 0.370478
553.784700 0.334006
554.010400 0.387789
554.236100 0.352504
554.461800 0.378748
554.687500 0.346491
554.913200 0.362806
555.139000 0.319208
555.364800 0.358265
555.590500 0.345845
555.816300 0.321043
556.042100 0.361387
556.267900 0.309681
556.493700 0.311104
556.719500 0.310432
556.945400 0.310084
557.171200 0.314118
557.397100 0.279060
557.623000 0.298275
557.848800 0.291083
558.074700 0.288505
558.300600 0.281564
558.526600 0.279976
558.752500 0.276258
558.978400 0.261289
559.204400 0.291403
559.430300 0.274331
559.656300 0.256148
559.882300 0.219496
560.108300 0.254178
560.334300 0.244526
560.560300 0.250795
560.786300 0.259440
561.012400 0.250981
561.238400 0.241557
561.464500 0.235315
561.690500 0.257537
561.916600 0.269242
562.142700 0.228140
562.368800 0.226273
562.594900 0.233607
562.821100 0.220901
563.047200 0.227652
563.273300 0.250311
563.499500 0.197069
563.725700 0.222647
563.951900 0.198072
564.178100 0.208271
564.404300 0.191088
564.630500 0.217621
564.856700 0.189264
565.082900 0.199255
565.309200 0.184114
565.535500 0.202162
565.761700 0.155528
565.988000 0.187684
566.214300 0.164367
566.440600 0.162626
566.666900 0.189383
566.893200 0.167661
567.119600 0.179833
567.345900 0.177293
567.572300 0.171403
567.798700 0.174140
568.025000 0.159449
568.251400 0.178768
568.477800 0.171408
568.704300 0.169043
568.930700 0.171720
569.157100 0.169483
569.383600 0.148128
569.610000 0.159482
569.836500 0.160083
570.063000 0.154981
570.289500 0.169657
570.516000 0.166951
570.742500 0.140558
570.969000 0.148966
571.195600 0.156008
571.422100 0.144986
571.648700 0.144620
571.875200 0.140308
572.101800 0.140822
572.328400 0.151712
572.555000 0.135578
572.781600 0.140137
573.008200 0.148335
573.234900 0.147046
573.461500 0.132493
573.688200 0.134998
573.914900 0.134121
574.141500 0.120317
574.368200 0.125294
574.594900 0.126537
574.821600 0.117962
575.048400 0.122456
575.275100 0.120663
575.501800 0.120942
575.728600 0.126812
575.955400 0.119766
576.182100 0.124325
576.408900 0.118476
576.635700 0.112371
576.862600 0.114892
577.089400 0.108027
577.316200 0.103003
577.543100 0.108211
577.769900 0.099485
577.996800 0.104900
578.223700 0.107980
578.450500 0.095164
578.677400 0.103969
578.904400 0.097075
579.131300 0.098040
579.358200 0.084607
579.585100 0.094852
579.812100 0.085642
580.039100 0.093523
580.266000 0.083197
580.493000 0.080075
580.720000 0.086135
580.947000 0.077847
581.174100 0.081587
581.401100 0.081048
581.628100 0.087405
581.855200 0.077327
582.082200 0.080652
582.309300 0.076468
582.536400 0.076272
582.763500 0.072655
582.990600 0.064259
583.217700 0.061952
583.444900 0.062507
583.672000 0.066566
583.899100 0.063591
584.126300 0.059320
584.353500 0.053801
584.580700 0.071259
584.807900 0.078394
585.035100 0.074531
585.262300 0.075063
585.489500 0.072854
585.716700 0.066116
585.944000 0.064316
586.171300 0.071620
586.398500 0.062940
586.625800 0.057441
586.853100 0.056539
587.080400 0.063195
587.307700 0.055265
587.535000 0.059400
587.762400 0.050552
587.989700 0.051729
588.217100 0.055126
588.444500 0.053839
588.671800 0.051983
588.899200 0.050905
589.126600 0.040336
589.354000 0.058956
589.581500 0.048188
589.808900 0.047353
590.036300 0.047574
590.263800 0.051241
590.491300 0.041419
590.718700 0.050175
590.946200 0.044962
591.173700 0.048007
591.401200 0.054722
591.628800 0.051905
591.856300 0.044660
592.083800 0.048906
592.311400 0.037290
592.538900 0.042541
592.766500 0.053051
592.994100 0.047015
593.221700 0.058784
593.449300 0.040452
593.676900 0.044409
593.904600 0.042757
594.132200 0.043462
594.359800 0.045140
594.587500 0.041063
594.815200 0.037503
595.042900 0.046924
595.270500 0.039869
595.498300 0.032500
595.726000 0.037022
595.953700 0.038872
596.181400 0.041905
596.409200 0.043828
596.636900 0.040687
596.864700 0.037636
597.092500 0.043034
597.320300 0.041517
597.548100 0.043215
597.775900 0.048264
598.003700 0.033606
598.231500 0.034634
598.459400 0.035787
598.687200 0.035403
598.915100 0.048279
599.143000 0.047627
599.370900 0.054880
599.598800 0.041079
599.826700 0.033403
600.054600 0.038261
600.282500 0.033525
600.510500 0.036584
600.738400 0.023505
600.966400 0.026738
601.194400 0.031761
601.422300 0.028204
601.650300 0.022253
601.878300 0.024384
602.106400 0.030476
602.334400 0.029812
602.562400 0.034133
602.790500 0.031341
603.018500 0.021738
603.246600 0.032563
603.474700 0.032765
603.702800 0.026851
603.930900 0.036277
604.159000 0.034742
604.387100 0.037556
604.615200 0.023399
604.843400 0.030959
605.071500 0.021817
605.299700 0.027676
605.527900 0.019164
605.756100 0.012299
605.984300 0.021221
606.212500 0.014520
606.440700 0.007549
606.668900 0.019035
606.897200 0.019298
607.125400 0.022668
607.353700 0.018436
607.581900 0.021544
607.810200 0.017617
608.038500 0.018198
608.266800 0.016601
608.495100 -0.002523
608.723500 0.005321
608.951800 0.022639
609.180100 0.014199
609.408500 0.015867
609.636900 0.025019
609.865300 0.013233
610.093600 0.031831
610.322000 0.014236
610.550500 0.021332
610.778900 0.008331
611.007300 0.023117
611.235700 0.021260
611.464200 0.027144
611.692700 0.025119
611.921100 0.015289
612.149600 0.025134
612.378100 0.017957
612.606600 0.014528
612.835100 0.020640
613.063700 0.016837
613.292200 0.019453
613.520800 0.008046
613.749300 0.018692
613.977900 0.019223
614.206500 0.005654
614.435100 0.015926
614.663700 0.030995
614.892300 0.018861
615.120900 0.014464
615.349500 0.020318
615.578200 0.013650
615.806800 0.028637
616.035500 0.010281
616.264200 0.007857
616.492900 0.019927
616.721600 0.015073
616.950300 0.012063
617.179000 0.003272
617.407700 0.023330
617.636500 0.007523
617.865200 0.012706
618.094000 0.007330
618.322700 0.002127
618.551500 0.008492
618.780300 -0.005676
619.009100 0.006767
619.237900 0.010958
619.466700 0.016961
619.695600 0.012363
619.924400 0.016037
620.153300 0.017601
620.382100 0.015131
620.611000 0.008955
620.839900 0.003500
621.068800 -0.003558
621.297700 0.004655
621.526600 0.008629
621.755600 0.000901
621.984500 0.021180
622.213500 0.008248
622.442400 0.003813
622.671400 0.025900
622.900400 0.009351
623.129400 0.017356
623.358400 0.004762
623.587400 -0.000480
623.816400 -0.000903
624.045400 0.008939
624.274500 0.016894
624.503500 0.004183
624.732600 -0.012355
624.961700 0.022250
625.190800 0.001587
625.419900 -0.002033
625.649000 0.009195
625.878100 0.002716
626.107200 -0.009342
626.336400 -0.011125
626.565500 0.015936
626.794700 0.004374
627.023800 0.007241
627.253000 -0.005313
627.482200 0.001559
627.711400 0.004241
627.940600 0.022968
628.169800 0.012300
628.399100 0.008592
628.628300 0.000659
628.857600 -0.011980
629.086800 0.006622
629.316100 0.008982
629.545400 -0.001357
629.774700 -0.001263
630.004000 -0.001925
630.233300 0.022552
630.462600 0.005081
630.692000 0.010631
630.921300 0.007011
631.150700 -0.005266
631.380100 -0.002138
631.609400 0.023083
631.838800 0.017994
632.068200 -0.008557
632.297600 0.016107
632.527100 -0.001191
632.756500 0.010748
632.985900 -0.006400
633.215400 0.002705
633.444800 0.009055
633.674300 0.003515
633.903800 -0.019104
634.133300 -0.007600
634.362800 0.003616
634.592300 0.006880
634.821800 -0.000609
635.051400 0.008530
635.280900 0.027711
635.510500 -0.005588
635.740000 0.006604
635.969600 0.018322
636.199200 -0.002975
636.428800 0.008370
636.658400 0.005625
636.888000 0.009852
637.117700 0.002194
637.347300 0.000252
637.577000 0.011321
637.806600 0.031182
638.036300 0.009967
638.266000 -0.005639
638.495700 0.019888
638.725400 0.005887
638.955100 -0.006092
639.184800 -0.009196
639.414500 -0.003473
639.644300 -0.000876
639.874000 0.020701
640.103800 -0.014437
640.333600 0.012793
640.563300 -0.006641
640.793100 -0.019170
641.022900 0.007846
641.252800 0.021401
641.482600 0.028110
641.712400 -0.016079
641.942300 0.002596
642.172100 0.033842
642.402000 -0.020733
642.631900 -0.016758
642.861700 -0.011689
643.091600 -0.005341
643.321600 0.006444
643.551500 -0.021569
643.781400 0.010950
644.011300 0.015413
644.241300 -0.018489
644.471200 -0.009455
644.701200 -0.034120
644.931200 -0.010951
645.161200 0.007397
645.391200 -0.012320
645.621200 0.055004
645.851200 -0.029943
646.081200 -0.016400
646.311300 0.007257
646.541300 0.033235
646.771400 -0.026101
647.001500 0.024656
647.231600 -0.016864
647.461600 0.011479
647.691800 -0.006307
647.921900 -0.046070
648.152000 -0.023385
648.382100 -0.000442
648.612300 0.033630
648.842400 -0.014102
649.072600 0.007771
649.302800 -0.018142
649.532900 0.006467
649.763100 0.001398
649.993300 0.004955
650.223600 0.022292
650.453800 -0.034051
650.684000 -0.009223
650.914300 0.029926
651.144500 0.028246
651.374800 -0.007890
651.605100 0.008099
651.835400 0.004577
652.065700 0.012516
652.296000 -0.013568
652.526300 -0.024014
652.756600 -0.020703
652.987000 0.007602
653.217300 -0.028487
653.447700 0.010942
653.678000 0.015560
653.908400 -0.011966
654.138800 0.017154
654.369200 0.017605
654.599600 0.006099
654.830000 0.006922
655.060500 -0.005959
655.290900 0.006870
655.521300 0.024778
655.751800 0.027968
655.982300 0.002910
656.212800 0.000974
656.443300 0.001458
656.673800 0.001232
656.904300 0.002850
657.134800 0.024766
657.365300 0.021093
657.595900 0.018831
657.826400 0.016748
658.057000 0.021236
658.287500 0.013312
658.518100 0.006889
658.748700 0.014730
658.979300 0.015446
659.209900 -0.005196
659.440600 -0.028471
659.671200 -0.043809
659.901800 -0.056277
660.132500 -0.041677
660.363200 -0.024584
660.593800 -0.021039
660.824500 -0.029592
661.055200 -0.008500
661.285900 0.016627
661.516600 -0.003335
661.747400 0.010657
661.978100 -0.005721
662.208800 0.054699
662.439600 0.022234
662.670400 0.019170
662.901100 0.007327
663.131900 -0.013749
663.362700 -0.032952
663.593500 0.027855
663.824300 0.021032
664.055200 -0.030513
664.286000 0.003424
664.516800 0.000921
664.747700 0.008422
664.978600 -0.006179
665.209400 0.037322
665.440300 0.039445
665.671200 -0.003690
665.902100 0.027496
666.133000 0.017279
666.364000 -0.029438
666.594900 0.007853
666.825900 -0.024719
667.056800 -0.000275
667.287800 0.029389
667.518800 0.027407
667.749700 -0.010679
667.980700 -0.019776
668.211700 -0.000274
668.442800 -0.018640
668.673800 0.025914
668.904800 -0.026022
669.135900 -0.006946
669.366900 -0.007031
669.598000 -0.021316
669.829100 -0.012921
670.060200 -0.038132
670.291300 0.018544
670.522400 0.045270
670.753500 -0.041875
670.984600 0.024478
671.215700 -0.018273
671.446900 0.007035
671.678100 0.032429
671.909200 0.029763
672.140400 0.030757
672.371600 0.020155
672.602800 -0.007200
672.834000 0.000927
673.065200 -0.009694
673.296400 -0.009755
673.527700 0.014793
673.758900 -0.028468
673.990200 0.013978
674.221400 -0.006406
674.452700 0.018727
674.684000 -0.008310
674.915300 0.044073
675.146600 -0.009643
675.377900 -0.023750
675.609300 -0.000957
675.840600 -0.006286
676.071900 0.008665
676.303300 -0.008810
676.534700 -0.022783
676.766100 -0.020905
676.997400 0.006788
677.228800 -0.010981
677.460200 -0.001351
677.691700 -0.001093
677.923100 0.012227
678.154500 0.008777
678.386000 -0.002333
678.617400 -0.009283
678.848900 -0.003080
679.080400 0.000457
679.311900 -0.002318
679.543400 0.009269
679.774900 -0.001822
680.006400 0.036626
680.237900 -0.004653
680.469400 0.007100
680.701000 0.011991
680.932500 -0.010915
681.164100 0.029000
681.395700 0.019105
681.627300 0.012780
681.858900 0.015011
682.090500 0.005847
682.322100 0.014074
682.553700 0.013258
682.785400 -0.013138
683.017000 0.016538
683.248700 0.018684
683.480300 0.027873
683.712000 -0.009703
683.943700 0.001001
684.175400 -0.013114
684.407100 0.002512
684.638800 -0.021514
684.870500 0.023546
685.102300 0.003620
685.334000 -0.010709
685.565800 0.021989
685.797500 0.015753
686.029300 0.003322
686.261100 0.034167
686.492900 0.012278
686.724700 -0.008971
686.956500 -0.004560
687.188300 -0.006759
687.420200 0.010696
687.652000 0.003399
687.883800 0.001598
688.115700 -0.009767
688.347600 -0.030255
688.579500 0.002009
688.811400 0.010980
689.043300 0.011828
689.275200 -0.018771
689.507100 0.009305
689.739000 0.003136
689.971000 0.009381
690.202900 -0.013426
690.434900 -0.008786
690.666900 0.005039
690.898800 -0.004054
691.130800 0.010006
691.362800 -0.024341
691.594800 -0.016481
691.826900 -0.004426
692.058900 0.006707
692.290900 0.011309
692.523000 0.032308
692.755000 -0.000155
692.987100 -0.026458
693.219200 -0.019357
693.451300 0.046919
693.683400 0.013033
693.915500 0.006435
694.147600 -0.004270
694.379700 0.000509
694.611900 -0.009750
694.844000 0.005387
695.076200 -0.016779
695.308300 0.000456
695.540500 -0.005351
695.772700 -0.028495
696.004900 0.028428
696.237100 0.023814
696.469300 0.004547
696.701600 0.034308
696.933800 -0.017677
697.166000 0.030457
697.398300 0.025422
697.630600 -0.011982
697.862800 0.028849
698.095100 0.009565
698.327400 0.014061
698.559700 0.010675
698.792000 -0.009058
699.024300 0.013135
699.256700 0.000998
699.489000 0.010611
699.721400 0.011027
699.953700 0.001862
700.186100 0.012919
700.418500 0.001341
700.650900 0.018535
700.883300 0.001763
701.115700 0.015707
701.348100 -0.011504
701.580600 0.001733
701.813000 0.030531
702.045400 -0.005995
702.277900 -0.007133
702.510400 -0.022423
702.742900 0.013592
702.975300 -0.003720
703.207800 0.023316
703.440300 0.014254
703.672900 0.016564
703.905400 0.001204
704.137900 0.037934
704.370500 -0.007626
704.603000 0.030712
704.835600 0.034833
705.068200 0.001481
705.300800 0.017099
705.533400 -0.005263
705.766000 -0.024440
705.998600 0.029178
706.231200 0.018291
706.463800 0.034673
706.696500 0.017816
706.929100 -0.020919
707.161800 -0.021670
707.394500 0.014298
707.627200 0.009793
707.859900 0.018692
708.092600 0.013836
708.325300 -0.014014
708.558000 -0.011780
708.790700 0.005999
709.023500 0.007532
709.256200 -0.018565
709.489000 -0.003333
709.721700 -0.035653
709.954500 -0.036032
710.187300 -0.028045
710.420100 -0.000147
710.652900 -0.005494
710.885700 -0.013635
711.118600 0.000852
711.351400 -0.019553
711.584200 0.004832
711.817100 -0.008046
712.050000 -0.013895
712.282800 -0.000110
712.515700 -0.005198
712.748600 -0.001665
712.981500 -0.008002
713.214400 0.025863
713.447400 -0.021935
713.680300 0.003615
713.913200 -0.008662
714.146200 -0.034607
714.379100 -0.042659
714.612100 0.000634
714.845100 0.002496
715.078100 0.003692
715.311100 -0.018035
715.544100 0.023545
715.777100 -0.023230
716.010200 -0.026404
716.243200 -0.018994
716.476200 0.013992
716.709300 -0.012381
716.942400 0.003054
717.175400 -0.011954
717.408500 0.021930
717.641600 -0.024693
717.874700 -0.001749
718.107800 0.004667
718.341000 0.007513
718.574100 0.006595
718.807200 -0.018596
719.040400 0.001228
719.273600 -0.000864
719.506700 0.040788
719.739900 -0.001817
719.973100 -0.019465
720.206300 -0.020198
720.439500 0.003270
720.672700 -0.012576
720.906000 0.010131
721.139200 -0.023671
721.372500 0.025558
721.605700 0.047115
721.839000 0.000753
722.072300 -0.005135
722.305500 -0.013159
722.538800 0.023962
722.772100 -0.007232
723.005500 -0.024421
723.238800 -0.011627
723.472100 -0.021499
723.705500 -0.026249
723.938800 -0.026457
724.172200 -0.004419
724.405600 -0.025563
724.638900 0.031797
724.872300 -0.011833
725.105700 0.000613
725.339100 0.016590
725.572600 -0.000694
725.806000 -0.011480
726.039400 0.000398
726.272900 0.004549
726.506300 0.000676
726.739800 0.009471
726.973300 0.001534
727.206800 0.008348
727.440300 0.030252
727.673800 -0.008515
727.907300 0.027765
728.140800 0.005383
728.374300 -0.025643
728.607900 -0.008451
728.841400 -0.000271
729.075000 0.004020
729.308600 -0.005143
729.542100 -0.010453
729.775700 -0.005922
730.009300 -0.017566
730.242900 0.009660
730.476600 0.028810
730.710200 -0.013229
730.943800 0.007676
731.177500 0.019124
731.411100 0.005282
731.644800 0.023538
731.878500 -0.018231
732.112200 0.003745
732.345800 0.004261
732.579500 0.033243
732.813300 0.001492
733.047000 0.003056
733.280700 0.001915
733.514500 0.006571
733.748200 0.012337
733.982000 0.002254
734.215700 0.003444
734.449500 0.009943
734.683300 0.008246
734.917100 -0.005764
735.150900 -0.011697
735.384700 0.013606
735.618500 0.010141
735.852400 0.008605
736.086200 -0.009065
736.320100 -0.003120
736.553900 0.024781
736.787800 -0.018835
737.021700 0.010181
737.255600 -0.000096
737.489500 -0.003381
737.723400 -0.009552
737.957300 -0.014034
738.191200 -0.003378
738.425200 0.006139
738.659100 0.012210
738.893100 0.001981
739.127100 0.006376
739.361000 -0.006432
739.595000 0.011431
739.829000 -0.021749
740.063000 -0.027551
740.297000 0.016800
740.531000 -0.027920
740.765100 0.014851
740.999100 0.013182
741.233200 -0.001973
741.467200 0.004435
741.701300 -0.009850
741.935400 -0.001994
742.169500 -0.016224
742.403600 -0.008282
742.637700 -0.003774
742.871800 -0.005095
743.105900 -0.020691
743.340000 0.000303
743.574200 -0.028354
743.808300 -0.015674
744.042500 -0.048174
744.276700 0.011305
744.510800 -0.007340
744.745000 -0.015007
744.979200 0.025166
745.213400 0.013129
745.447700 -0.014802
745.681900 -0.038869
745.916100 0.006138
746.150400 -0.010642
746.384600 0.021654
746.618900 -0.043253
746.853200 -0.017594
747.087400 0.006291
747.321700 -0.013732
747.556000 -0.039393
747.790300 -0.001278
748.024700 -0.029954
748.259000 -0.022174
748.493300 -0.001684
748.727700 -0.024137
748.962000 -0.000430
749.196400 -0.000140
749.430800 0.038766
749.665200 -0.038479
749.899500 0.011587
750.133900 0.007579
750.368400 -0.017750
750.602800 -0.011850
750.837200 -0.002737
751.071700 0.014209
751.306100 -0.000154
751.540600 -0.008265
751.775000 0.043001
752.009500 -0.021861
752.244000 -0.003042
752.478500 0.005458
752.713000 -0.001718
752.947500 -0.052891
753.182000 0.000221
753.416600 -0.013301
753.651100 0.012757
753.885600 0.031925
754.120200 0.044208
754.354800 -0.009141
754.589400 0.009654
754.823900 0.015221
755.058500 -0.015238
755.293100 0.011584
755.527800 0.011657
755.762400 -0.008219
755.997000 0.024547
756.231700 0.006369
756.466300 0.010653
756.701000 0.023080
756.935600 -0.012620
757.170300 -0.011042
757.405000 0.021166
757.639700 -0.004642
757.874400 0.004004
758.109100 0.030767
758.343800 0.007729
758.578600 -0.003152
758.813300 0.044877
759.048100 0.015951
759.282800 -0.006144
759.517600 0.015157
759.752400 -0.005509
759.987200 0.003020
760.222000 0.020382
760.456800 0.011565
760.691600 0.034667
760.926400 0.004417
761.161300 0.006234
761.396100 0.000970
761.631000 0.017953
761.865800 0.033275
762.100700 0.010256
762.335600 0.005714
762.570500 0.001513
762.805400 -0.032301
763.040300 0.001214
763.275200 -0.003269
763.510100 0.008575
763.745000 -0.003018
763.980000 0.035771
764.214900 -0.007798
764.449900 0.004650
764.684900 0.017390
764.919800 -0.013506
765.154800 -0.007919
765.389800 0.013293
765.624800 0.024886
765.859900 -0.001067
766.094900 0.002289
766.329900 0.002907
766.565000 -0.003515
766.800000 -0.018500
767.035100 -0.012630
767.270100 0.028605
767.505200 0.021662
767.740300 -0.000858
767.975400 -0.010486
768.210500 -0.008145
768.445600 -0.014489
768.680800 -0.006854
768.915900 0.005644
769.151000 0.000284
769.386200 0.004650
769.621400 -0.016387
769.856500 0.017764
770.091700 0.013543
770.326900 0.005993
770.562100 0.025288
770.797300 -0.004558
771.032500 -0.022656
771.267700 0.005965
771.503000 -0.012800
771.738200 0.029217
771.973500 -0.008948
772.208700 -0.003038
772.444000 0.022275
772.679300 -0.026252
772.914600 -0.007548
773.149900 0.004935
773.385200 -0.008397
773.620500 -0.015462
773.855800 -0.003678
774.091100 -0.002415
774.326500 -0.002956
774.561800 0.015632
774.797200 -0.010457
775.032600 0.041252
775.267900 -0.032642
775.503300 0.000177
775.738700 0.016389
775.974100 0.014265
776.209500 -0.012739
776.445000 0.021527
776.680400 0.023027
776.915800 0.028468
777.151300 -0.011343
777.386800 -0.015371
777.622200 -0.000457
777.857700 0.023121
778.093200 -0.006463
778.328700 -0.025151
778.564200 -0.017238
778.799700 0.004547
779.035200 0.020699
779.270700 -0.036227
779.506300 0.022997
779.741800 0.012770
779.977400 0.000190
780.213000 0.011272
780.448500 -0.009567
780.684100 -0.018330
780.919700 0.018660
781.155300 -0.015243
781.390900 0.008137
781.626500 0.010083
781.862200 0.031473
782.097800 -0.003037
782.333500 -0.008421
782.569100 0.002691
782.804800 0.012103
783.040500 0.012379
783.276100 -0.042273
783.511800 0.023096
783.747500 -0.005468
783.983200 0.002429
784.219000 -0.005321
784.454700 -0.013930
784.690400 -0.017483
784.926200 0.017598
785.161900 0.014564
785.397700 -0.001680
785.633500 0.006107
785.869200 -0.000572
786.105000 0.003231
786.340800 0.026604
786.576600 0.006463
786.812400 0.021370
787.048300 -0.009247
787.284100 0.019528
787.519900 -0.014195
787.755800 0.007128
787.991700 -0.002553
788.227500 -0.024014
788.463400 0.012934
788.699300 -0.015689
788.935200 0.014349
789.171100 -0.009685
789.407000 -0.014126
789.642900 -0.022414
789.878900 0.001314
790.114800 -0.009979
790.350700 -0.008473
790.586700 0.016184
790.822700 0.020760
791.058600 -0.021796
791.294600 0.009227
791.530600 0.029666
791.766600 0.018728
792.002600 0.024283
792.238700 -0.000872
792.474700 0.028971
792.710700 0.029982
792.946800 -0.011034
793.182800 0.013442
793.418900 0.001963
793.655000 0.010635
793.891000 0.015269
794.127100 -0.009118
794.363200 -0.001510
794.599300 -0.008609
794.835500 0.005524
795.071600 0.010509
795.307700 0.031122
795.543900 -0.013065
795.780000 -0.008448
796.016200 0.006867
796.252300 0.008562
796.488500 0.003605
796.724700 0.030548
796.960900 0.039049
797.197100 -0.010872
797.433300 -0.006041
797.669500 0.023319
797.905800 0.037764
798.142000 0.046953
798.378300 0.011093
798.614500 -0.017730
798.850800 -0.021027
799.087100 -0.026759
799.323300 0.007165
799.559600 0.020166
799.795900 0.040048
800.032200 -0.015545
800.268600 -0.016405
800.504900 0.032028
800.741200 -0.024108
800.977600 -0.024108
801.213900 0.031755
801.450300 0.053702
801.686700 -0.023272
801.923000 -0.008714
802.159400 0.010757
802.395800 -0.023121
802.632200 0.020355
802.868600 -0.057784
803.105100 0.000715
803.341500 -0.009236
803.577900 0.036272
803.814400 0.014479
804.050800 -0.003390
804.287300 -0.018814
804.523800 -0.024062
804.760300 0.035748
804.996800 -0.010413
805.233300 -0.021156
805.469800 0.046499
805.706300 -0.037588
805.942800 -0.030868
806.179400 -0.032440
806.415900 0.006061
806.652500 0.014232
806.889000 0.050467
807.125600 -0.016599
807.362200 -0.015055
807.598800 -0.008221
807.835400 0.031254
808.072000 -0.029255
808.308600 -0.005053
808.545200 0.000896
808.781800 -0.022762
809.018500 0.000283
809.255100 0.011888
809.491800 -0.004911
809.728400 -0.042808
809.965100 -0.021538
810.201800 0.006340
810.438500 -0.012910
810.675200 -0.013531
810.911900 -0.009971
811.148600 -0.003931
811.385300 -0.001230
811.622100 -0.008009
811.858800 -0.019999
812.095600 -0.003381
812.332300 0.028342
812.569100 -0.038364
812.805900 -0.037444
813.042700 -0.018556
813.279500 -0.034259
813.516300 -0.020681
813.753100 -0.032474
813.989900 0.033853
814.226700 -0.003390
814.463600 -0.003405
814.700400 -0.004244
814.937300 -0.039914
815.174200 -0.056629
815.411000 -0.052736
815.647900 -0.045681
815.884800 -0.005287
816.121700 -0.016203
816.358600 0.030183
816.595500 0.038025
816.832400 -0.013379
817.069400 -0.001540
817.306300 -0.041217
817.543300 0.027042
817.780200 -0.077406
818.017200 0.092573
818.254200 0.030666
818.491200 -0.005771
818.728200 0.047794
818.965200 -0.009873
819.202200 -0.061111
819.439200 0.036367
819.676200 -0.022905
819.913300 -0.003651
820.150300 -0.065006
820.387400 0.018982
820.624400 0.039163
820.861500 -0.038588
821.098600 0.048319
821.335700 -0.000271
821.572700 0.012424
821.809900 -0.033866
822.047000 0.018776
822.284100 -0.033487
822.521200 -0.018568
822.758400 0.017915
822.995500 0.076395
823.232700 -0.014787
823.469800 0.017677
823.707000 -0.053759
823.944200 0.043024
824.181400 0.060552
824.418600 0.035325
824.655800 0.000591
824.893000 -0.041792
825.130200 -0.029834
825.367500 0.034478
825.604700 -0.014255
825.841900 -0.026449
826.079200 0.005991
826.316500 0.032151
826.553700 0.023102
826.791000 0.038114
827.028300 0.007755
827.265600 0.086695
827.502900 -0.026716
827.740200 0.001612
827.977600 -0.070328
828.214900 0.019597
828.452200 0.026833
828.689600 -0.025496
828.927000 0.022815
829.164300 -0.061518
829.401700 0.023483
829.639100 0.028240
829.876500 -0.031139
830.113900 0.016422
830.351300 0.037150
830.588700 0.000125
830.826100 -0.023515
831.063600 -0.036809
831.301000 0.065357
831.538500 -0.035767
831.775900 -0.017041
832.013400 -0.011559
832.250900 -0.002444
832.488400 -0.038721
832.725900 -0.026615
832.963400 -0.027108
833.200900 0.002859
833.438400 -0.066555
833.675900 0.055941
833.913500 0.040236
834.151000 0.034508
834.388600 -0.028183
834.626100 -0.041473
834.863700 -0.004691
835.101300 -0.013042
835.338900 0.055692
835.576500 -0.029585
835.814100 -0.028349
836.051700 0.007051
836.289300 0.064074
836.526900 0.033509
836.764600 -0.005942
837.002200 0.021199
837.239900 0.045467
837.477500 0.016209
837.715200 -0.003270
837.952900 -0.022692
838.190600 0.110648
838.428300 0.069606
838.666000 0.043080
838.903700 0.029990
839.141400 0.049985
839.379100 0.014686
839.616900 -0.118163
839.854600 -0.000818
840.092400 -0.073435
840.330200 -0.026363
840.567900 0.082914
840.805700 0.027445
841.043500 0.061689
841.281300 0.011708
841.519100 -0.023614
841.756900 -0.038058
841.994700 -0.010539
842.232600 0.047337
842.470400 -0.009088
842.708200 -0.020679
842.946100 -0.067282
843.184000 -0.147516
843.421800 0.000550
843.659700 0.008757
843.897600 -0.131002
844.135500 0.094667
844.373400 -0.050905
844.611300 0.076193
844.849200 0.023235
845.087200 0.069034
845.325100 -0.023890
845.563100 -0.001778
845.801000 -0.051727
846.039000 0.002608
846.277000 -0.077286
846.514900 -0.026745
846.752900 -0.147508
846.990900 -0.128312
847.228900 -0.087674
847.466900 0.199412
847.705000 -0.038554
847.943000 -0.044244
848.181000 0.214202
848.419100 0.022457
848.657100 -0.027669
848.895200 -0.030040
849.133300 -0.020464
849.371300 0.038479
849.609400 -0.015275
849.847500 -0.099695
850.085600 0.054152
850.323700 0.042971
850.561900 -0.063570
850.800000 0.125925
851.038100 0.003551
851.276300 -0.131935
851.514400 -0.041540
851.752600 0.123482
851.990800 -0.002988
852.228900 -0.075583
852.467100 0.065882
852.705300 -0.006678
852.943500 0.000170
853.181700 0.057532
853.420000 -0.000308
853.658200 0.007304
853.896400 0.016453
854.134700 -0.031927
854.372900 -0.052270
854.611200 0.036655
854.849500 0.058855
855.087700 -0.003154
855.326000 0.033673
855.564300 -0.017388
855.802600 0.005179
856.040900 0.026439
856.279200 0.038418
856.517600 -0.013941
856.755900 0.005877
856.994200 -0.073580
857.232600 -0.001473
857.471000 -0.048364
857.709300 0.026419
857.947700 -0.020705
858.186100 0.090830
858.424500 -0.007799
858.662900 0.073609
858.901300 0.003804
859.139700 0.089917
859.378100 -0.001304
859.616600 0.086556
859.855000 -0.066297
860.093500 -0.009875
860.331900 -0.023026
860.570400 -0.006368
860.808900 0.030368
861.047300 0.046454
861.285800 0.042418
861.524300 0.218897
861.762800 -0.057183
862.001300 0.072314
862.239900 0.093922
862.478400 -0.086276
862.716900 0.035728
862.955500 -0.013385
863.194000 -0.015899
863.432600 0.118365
863.671200 0.156605
863.909800 -0.107673
864.148300 -0.067373
864.386900 0.042014
864.625500 0.033309
864.864200 -0.021381
865.102800 -0.059771
865.341400 0.076263
865.580000 -0.141709
865.818700 -0.057515
866.057300 0.008420
866.296000 0.136613
866.534700 -0.079524
866.773300 0.123656
867.012000 -0.007674
867.250700 0.086786
867.489400 -0.160806
867.728100 0.141564
867.966900 0.113386
868.205600 -0.086186
868.444300 -0.048331
868.683100 0.008454
868.921800 -0.083611
869.160600 0.094331
869.399300 -0.047621
869.638100 0.025648
869.876900 -0.041563
870.115700 0.004441
870.354500 0.135682
870.593300 -0.015724
870.832100 0.024676
871.070900 -0.027776
871.309700 0.054130
871.548600 0.065065
871.787400 -0.081052
872.026300 0.064381
872.265100 0.076454
872.504000 -0.015077
872.742900 -0.141281
872.981800 0.021806
873.220700 -0.081354
873.459600 0.052824
873.698500 0.002795
873.937400 0.072699
874.176300 -0.044799
874.415300 -0.022834
874.654200 0.133385
874.893200 0.040337
875.132100 -0.053132
875.371100 0.075622
875.610100 -0.039643
875.849100 0.099739
876.088000 -0.010629
876.327000 0.107742
876.566100 0.038449
876.805100 0.018862
877.044100 -0.116227
877.283100 -0.068602
877.522200 -0.126944
877.761200 -0.082292
878.000300 -0.055077
878.239300 0.072299
878.478400 -0.016009
878.717500 0.017679
878.956600 0.013299
879.195700 0.125924
879.434800 -0.004438
879.673900 -0.093722
879.913000 0.021275
880.152100 0.080690
880.391300 0.051822
880.630400 0.097441
880.869600 0.007208
881.108700 -0.036715
881.347900 0.007969
881.587100 0.008157
881.826200 -0.056616
882.065400 0.012052
882.304600 0.000550
882.543800 0.017633
882.783100 0.041060
883.022300 -0.097196
883.261500 -0.074664
883.500700 -0.036171
883.740000 -0.011404
883.979200 0.108888
884.218500 0.043290
884.457800 -0.076931
884.697100 -0.063933
884.936300 -0.064036
885.175600 0.087072
885.414900 -0.009705
885.654200 0.065671
885.893600 -0.092296
886.132900 -0.025371
886.372200 0.018380
886.611600 -0.119997
886.850900 0.059841
887.090300 -0.053718
887.329600 0.025421
887.569000 -0.116440
887.808400 0.052012
888.047800 -0.111257
888.287200 -0.084804
888.526600 0.030346
888.766000 -0.140787
889.005400 0.024356
889.244800 -0.014221
889.484300 0.035702
889.723700 0.072221
889.963200 -0.065027
890.202600 0.040460
890.442100 0.033900
890.681600 0.109941
890.921100 0.104910
891.160600 0.069434
891.400100 -0.027168
891.639600 -0.002628
891.879100 -0.029302
892.118600 0.084834
892.358100 -0.068287
892.597700 0.015778
892.837200 0.051126
893.076800 0.060318
893.316300 0.040325
893.555900 0.087349
893.795500 -0.062377
894.035100 -0.150527
894.274700 0.082434
894.514300 -0.043085
894.753900 -0.050102
894.993500 -0.001997
895.233100 -0.161381
895.472700 -0.024757
895.712400 0.050903
895.952000 -0.052832
896.191700 0.059762
896.431400 -0.048560
896.671000 0.023648
896.910700 0.030864
897.150400 -0.078869
897.390100 -0.126697
897.629800 0.125997
897.869500 0.034006
898.109200 -0.050365
898.348900 0.076142
898.588700 -0.098663
898.828400 -0.021315
899.068200 0.031462
899.307900 0.103840
899.547700 0.202631
899.787500 0.012402
900.027200 -0.199565
900.267000 0.008857
900.506800 0.098975
900.746600 0.135896
900.986400 -0.123768
901.226300 0.091171
901.466100 -0.036563
901.705900 0.013695
901.945800 0.018636
902.185600 0.025363
902.425500 -0.065758
902.665400 -0.104743
902.905200 0.017464
903.145100 0.035890
903.385000 -0.092417
903.624900 -0.028391
903.864800 -0.020314
904.104700 -0.076190
904.344600 0.007967
904.584600 0.001971
904.824500 -0.059098
905.064400 0.020683
905.304400 0.197199
905.544400 0.007400
905.784300 0.226807
906.024300 -0.028537
906.264300 -0.028269
906.504300 0.042597
906.744300 0.072092
906.984300 -0.086418
907.224300 0.010497
907.464300 0.020435
907.704300 -0.049653
907.944400 -0.190557
908.184400 -0.033932
908.424500 -0.043667
908.664500 -0.051642
908.904600 -0.038740
909.144700 0.027849
909.384700 0.026419
909.624800 -0.132187
909.864900 0.083002
910.105000 -0.030325
910.345200 -0.264937
910.585300 -0.049240
910.825400 -0.028888
911.065500 0.100844
911.305700 -0.020623
911.545800 0.126777
911.786000 -0.055184
912.026200 -0.027817
912.266300 0.064272
912.506500 -0.049105
912.746700 -0.098125
912.986900 -0.128342
913.227100 -0.022365
913.467300 0.118390
913.707500 -0.134165
913.947800 0.323329
914.188000 0.022508
914.428300 -0.140530
914.668500 0.023846
914.908800 -0.054878
915.149000 -0.036880
915.389300 0.167838
915.629600 0.225982
915.869900 -0.000241
916.110200 -0.113037
916.350500 -0.087012
916.590800 0.061667
916.831100 -0.081408
917.071400 0.013818
917.311800 0.037577
917.552100 0.064227
917.792500 -0.105700
918.032800 -0.075083
918.273200 0.144043
918.513600 -0.111142
918.753900 0.068760
918.994300 -0.060215
919.234700 0.055682
919.475100 0.131636
919.715500 0.118491
919.956000 0.254845
920.196400 -0.018632
920.436800 -0.187984
920.677300 -0.045531
920.917700 0.029191
921.158200 0.023617
921.398600 -0.091324
921.639100 0.093665
921.879600 -0.105158
922.120100 0.002691
922.360600 0.029511
922.601100 -0.146908
922.841600 0.050028
923.082100 -0.050426
923.322600 -0.168939
923.563100 -0.109558
923.803700 0.150194
924.044200 -0.030818
924.284800 0.009181
924.525400 0.057497
924.765900 -0.112295
925.006500 -0.120872
925.247100 -0.048218
925.487700 -0.135764
925.728300 0.181897
925.968900 0.042791
926.209500 -0.115347
926.450100 -0.176643
926.690800 0.253367
926.931400 -0.234050
927.172000 -0.025541
927.412700 0.341076
927.653300 -0.189909
927.894000 0.054924
928.134700 0.002122
928.375400 -0.122465
928.616100 0.549693
928.856800 -0.136273
929.097500 -0.142316
929.338200 0.194049
929.578900 -0.011490
929.819600 0.206170
930.060400 0.034795
930.301100 0.079692
930.541900 0.245799
930.782600 3.413467
931.023400 -0.061851
931.264200 0.042673
931.504900 -0.035586
931.745700 0.114186
931.986500 0.010887
932.227300 0.086194
932.468100 0.149485
932.708900 -0.026831
932.949800 0.075175
933.190600 0.052910
933.431400 -0.095927
933.672300 -0.162043
933.913100 -0.012118
934.154000 0.008883
934.394900 -0.047269
934.635800 0.346888
934.876600 0.112404
935.117500 0.016112
935.358400 0.109068
935.599300 -0.151580
935.840300 0.100963
936.081200 -0.025010
936.322100 -0.292225
936.563000 -0.054414
936.804000 0.543740
937.044900 -0.241506
937.285900 0.061653
937.526900 0.287771
937.767800 0.107205
938.008800 -0.217139
938.249800 0.020515
938.490800 0.052378
938.731800 0.271509
938.972800 0.164430
939.213800 0.389354
939.454900 -0.129449
939.695900 -0.142257
939.936900 -0.025456
940.178000 -0.069740
940.419000 -0.104393
940.660100 0.255088
940.901200 0.043560
941.142200 -0.157700
941.383300 0.036068
941.624400 -0.192693
941.865500 0.141823
942.106600 0.356632
942.347700 -0.019997
942.588900 -0.120243
942.830000 -0.194713
943.071100 -0.179325
943.312300 0.172513
943.553400 0.501543
943.794600 0.198166
944.035700 0.535473
944.276900 -0.242842
944.518100 3.111934
944.759300 0.026527
945.000500 -0.211648
945.241700 0.078439
945.482900 0.092070
945.724100 0.115730
945.965300 -0.007955
946.206600 -0.156170
946.447800 -0.111308
946.689100 -0.030708
946.930300 0.540221
947.171600 0.416033
947.412800 0.647687
947.654100 0.096689
947.895400 0.445169
948.136700 -0.047237
948.378000 -0.360616
948.619300 0.089421
948.860600 0.135922
949.101900 -0.167387
949.343300 0.148596
949.584600 -0.064744
949.825900 -0.143145
950.067300 0.088410
950.308600 0.191274
950.550000 0.141611
950.791400 -0.710663
951.032700 -0.005783
951.274100 0.105578
951.515500 0.330242
951.756900 0.060563
951.998300 0.143616
952.239800 -0.048536
952.481200 -0.242068
952.722600 -0.423436
952.964000 -0.017858
953.205500 0.674636
953.446900 -0.281178
953.688400 -0.212936
953.929900 0.066796
954.171300 -1.455748
954.412800 3.142389
954.654300 -0.208067
954.895800 -0.328003
955.137300 -0.610912
955.378800 0.048601
955.620300 -0.197595
955.861800 0.080711
956.103400 0.595179
956.344900 -0.131376
956.586500 -0.121866
956.828000 0.344616
957.069600 -0.346732
957.311100 0.348410
957.552700 0.536176
957.794300 0.003483
958.035900 -0.328391
958.277500 -0.597506
958.519100 -0.042691
958.760700 -0.003451
959.002300 -0.446724
959.243900 -0.016448
959.485600 -0.313424
959.727200 -0.013047
959.968800 -0.006241
960.210500 -0.168421
960.452200 0.197281
960.693800 -0.267596
960.935500 -3.365113
961.177200 -0.343827
961.418900 -0.515285
961.660600 -0.306508
961.902300 0.228680
962.144000 -0.692093
962.385700 -0.476419
962.627400 0.345900
962.869200 0.359496
963.110900 0.428703
963.352700 2.840106
963.594400 0.078970
963.836200 0.014139
964.077900 0.081487
964.319700 -0.003709
964.561500 1.474702
964.803300 0.203742
965.045100 0.323747
965.286900 2.791691
965.528700 -0.174095
965.770500 0.182691
966.012300 -0.393784
966.254200 -0.279823
966.496000 -0.177032
966.737900 1.298341
966.979700 0.146450
967.221600 2.833784
967.463400 0.567276
967.705300 1.897016
967.947200 -0.578170
968.189100 -0.664096
968.431000 0.554929
968.672900 0.602060
968.914800 -0.048986
969.156700 2.745075
969.398700 -0.038981
969.640600 -0.848609
969.882500 -0.279337
970.124500 0.357704
970.366400 0.609632
970.608400 0.189271
970.850400 2.710117
971.092300 1.635149
971.334300 -0.081175
971.576300 -0.303756
971.818300 0.360055
972.060300 0.049699
972.302300 0.631628
972.544300 -0.157472
972.786400 0.052876
973.028400 0.260865
973.270400 0.304279
973.512500 0.297809
973.754500 -0.087986
973.996600 -0.203900
974.238700 3.228913
974.480700 -0.081809
974.722800 0.571551
974.964900 -0.455181
975.207000 0.259205
975.449100 -0.344591
975.691200 0.294069
975.933300 0.358154
976.175500 -3.086716
976.417600 0.085011
976.659700 0.087589
976.901900 3.021603
977.144000 0.113386
977.386200 -0.221067
977.628300 0.386619
977.870500 1.548185
978.112700 -0.515555
978.354900 -0.439663
978.597100 0.223075
978.839300 0.008169
979.081500 -0.034249
979.323700 -2.913814
979.565900 0.885550
979.808200 0.905454
980.050400 0.385609
980.292600 -0.022000
980.534900 3.012837
980.777100 0.269708
981.019400 -0.520185
981.261700 3.201124
981.504000 0.458468
981.746200 -1.111070
981.988500 3.013259
982.230800 2.805501
982.473100 -0.060528
982.715500 3.218010
982.957800 0.249112
983.200100 0.124052
983.442400 -0.011554
983.684800 2.799341
983.927100 0.011899
984.169500 2.985426
984.411800 -0.272094
984.654200 2.760422
984.896600 0.078464
985.139000 1.230449
985.381400 0.375471
985.623800 1.128105
985.866200 0.539211
986.108600 -2.465383
986.351000 3.089905
986.593400 -0.020532
986.835800 0.301969
987.078300 -0.404571
987.320700 -0.122817
987.563200 -0.140030
987.805600 2.414973
988.048100 3.189209
988.290600 -0.326293
988.533100 -3.162266
988.775600 -0.188040
989.018000 0.076260
989.260500 1.831087
989.503100 -2.913814
989.745600 -0.915166
989.988100 -2.956168
990.230600 0.361208
990.473200 -0.165896
990.715700 0.593978
990.958200 2.523746
991.200800 -0.459317
991.443400 -2.975891
991.685900 -0.439410
991.928500 -2.683047
992.171100 -0.836834
992.413700 0.482354
992.656300 0.005724
992.898900 -0.249323
993.141500 -0.274690
993.384100 -0.114801
993.626700 0.695832
993.869400 0.096722
994.112000 -0.349763
994.354700 0.590056
994.597300 0.940290
994.840000 -1.255273
995.082600 -0.583326
995.325300 2.269513
995.568000 1.293731
995.810700 -1.094049
996.053400 -0.320387
996.296100 0.108038
996.538800 0.290153
996.781500 0.195250
997.024200 -0.926673
997.267000 2.791691
997.509700 0.156074
997.752400 -0.177323
997.995200 -0.164485
998.237900 2.701568
998.480700 0.672937
998.723500 -3.215638
998.966200 2.956168
999.209000 0.000000
999.451800 0.008695
999.694600 -0.021559
999.937400 -0.627897
1000.180200 0.034762
1000.423000 1.846131
1000.665900 0.999464
1000.908700 -0.802458
1001.151500 -0.311476
1001.394400 2.745075
1001.637200 0.083261
1001.880100 -2.489958
1002.123000 0.157059
1002.365800 -0.302664
1002.608700 -0.241948
1002.851600 2.913284
1003.094500 0.620977
1003.337400 -0.777712
1003.580300 0.000000
1003.823200 -0.777594
1004.066100 0.346078
1004.309100 -0.336047
1004.552000 -0.107010
1004.794900 0.382190
1005.037900 0.427800
1005.280800 2.806180
1005.523800 0.500507
1005.766700 0.184021
1006.009700 -0.108668
1006.252700 -2.853698
1006.495700 -0.153228
1006.738700 -3.168497
1006.981700 0.866573
1007.224700 -0.302956
1007.467700 -0.857687
1007.710700 -0.053041
1007.953800 3.146128
1008.196800 0.136513
1008.439800 1.036984
1008.682900 2.691965
1008.925900 0.939242
1009.169000 0.566165
1009.412100 -3.204391
1009.655100 -0.389340
1009.898200 -0.000338
1010.141300 -0.716558
1010.384400 0.243460
1010.627500 0.332744
1010.870600 0.947760
1011.113700 -0.145619
1011.356800 0.083805
1011.600000 -0.874318
1011.843100 2.872156
1012.086300 0.000000
1012.329400 0.004865
1012.572600 -3.149527
1012.815700 -0.246696
1013.058900 -2.397940
1013.302100 -0.336949
1013.545200 -0.069654
1013.788400 -0.034788
1014.031600 -2.217484
1014.274800 0.119013
1014.518000 0.271546
1014.761300 0.106023
1015.004500 0.000000
1015.247700 -0.275121
1015.490900 0.000000
1015.734200 0.273658
1015.977400 -0.807909
1016.220700 -2.663701
1016.464000 0.100273
1016.707200 -0.734464
1016.950500 -0.587744
1017.193800 0.442566
1017.437100 -0.120754
1017.680400 2.985426
1017.923700 -0.186374
1018.167000 -0.026434
1018.410300 0.425969
1018.653600 -0.235713
1018.896900 0.180869
1019.140300 0.366494
1019.383600 -0.452853
1019.627000 0.400623
1019.870300 -0.565217
1020.113700 0.583671
1020.357100 2.575188
1020.600400 0.358154
1020.843800 0.594714
1021.087200 3.287130
1021.330600 -2.523746
1021.574000 3.070776
1021.817400 -2.318063
1022.060800 0.000000
1022.304200 -2.701568
1022.547700 0.132626
1022.791100 -0.445553
1023.034500 2.812913
