# Wavelength	Absorbance
197.780200 0.663678
197.984200 2.907949
198.188200 -0.048618
198.392200 2.682145
198.596300 -0.076908
198.800300 -0.559884
199.004400 -0.084906
199.208500 0.001183
199.412600 -0.409407
199.616800 0.374186
199.820900 -0.509589
200.025100 -0.192830
200.229200 -0.565896
200.433400 -0.165460
200.637600 0.010275
200.841800 -0.290286
201.046100 -0.037895
201.250300 0.130287
201.454600 0.017044
201.658900 0.116654
201.863100 -0.008704
202.067400 2.760422
202.271800 0.664020
202.476100 -0.158087
202.680500 -0.414675
202.884800 2.980458
203.089200 0.236669
203.293600 -0.369870
203.498000 -0.172720
203.702400 -0.878649
203.906900 -0.824147
204.111300 0.000000
204.315800 -0.301436
204.520300 3.062958
204.724800 -0.627398
204.929300 0.396199
205.133800 0.055549
205.338400 0.922574
205.543000 0.003526
205.747500 2.682145
205.952100 -0.357220
206.156700 0.436933
206.361400 -2.620136
206.566000 -0.547279
206.770600 3.168203
206.975300 -0.386775
207.180000 -1.703905
207.384700 -0.406606
207.589400 -2.082785
207.794100 -0.397940
207.998900 -0.398975
208.203600 0.239535
208.408400 2.970812
208.613200 -0.145000
208.818000 -0.666123
209.022800 2.414973
209.227600 -0.250575
209.432500 0.109989
209.637300 0.035146
209.842200 2.294466
210.047100 0.030753
210.252000 -0.836783
210.456900 3.086360
210.661800 3.055378
210.866800 0.530797
211.071800 0.018483
211.276700 -0.501985
211.481700 -0.540983
211.686700 0.417613
211.891800 0.480007
212.096800 1.572832
212.301800 2.890421
212.506900 -0.005326
212.712000 0.651805
212.917100 0.302580
213.122200 -0.365182
213.327300 3.220892
213.532500 0.000000
213.737600 -0.240658
213.942800 -0.947294
214.148000 2.631444
214.353200 0.000000
214.558400 0.172980
214.763600 1.501862
214.968900 -0.361152
215.174100 0.057992
215.379400 -2.752048
215.584700 -0.156505
215.790000 -0.041355
215.995300 2.820201
216.200700 2.806180
216.406000 -0.233766
216.611400 -0.659771
216.816800 -0.403005
217.022200 -0.693323
217.227600 0.691908
217.433000 -0.578386
217.638400 3.047275
217.843900 -0.212050
218.049400 -3.310056
218.254800 0.507183
218.460300 0.434569
218.665900 0.183213
218.871400 0.772119
219.076900 -0.030850
219.282500 2.960946
219.488100 0.347437
219.693600 -0.191068
219.899200 0.174219
220.104900 3.055378
220.310500 0.590161
220.516100 0.000000
220.721800 -0.051606
220.927500 3.071145
221.133200 -0.063199
221.338900 0.184332
221.544600 0.764170
221.750300 0.015647
221.956100 0.042307
222.161800 -0.732320
222.367600 0.599417
222.573400 0.329585
222.779200 -2.912753
222.985000 -2.313867
223.190900 0.336209
223.396700 0.191424
223.602600 0.012321
223.808500 0.306644
224.014400 0.070510
224.220300 2.935507
224.426200 -0.553206
224.632200 -0.365880
224.838100 -0.424078
225.044100 -0.248246
225.250100 0.155777
225.456100 -0.331765
225.662100 -0.535451
225.868100 2.127105
226.074200 0.034762
226.280200 -2.000000
226.486300 -0.128017
226.692400 0.000000
226.898500 0.420162
227.104600 -0.813422
227.310700 0.285859
227.516900 0.098985
227.723000 -0.591336
227.929200 3.252853
228.135400 -0.156653
228.341600 -0.390201
228.547800 0.325038
228.754100 3.003891
228.960300 -0.184240
229.166600 -3.231470
229.372900 -0.192767
229.579100 2.683047
229.785500 0.008502
229.991800 -0.723104
230.198100 -0.497981
230.404500 1.963788
230.610800 0.383755
230.817200 -1.763428
231.023600 -0.470362
231.230000 1.114845
231.436400 0.885117
231.642900 2.718502
231.849300 2.791691
232.055800 -0.206244
232.262300 0.094015
232.468800 -0.838918
232.675300 -0.050480
232.881800 2.599883
233.088400 -0.416593
233.294900 0.029090
233.501500 0.819218
233.708100 -3.161667
233.914700 0.813336
234.121300 -2.152288
234.327900 -0.432814
234.534600 2.682145
234.741300 -0.117504
234.947900 -0.392326
235.154600 0.109754
235.361300 0.177568
235.568000 -0.164093
235.774800 2.662758
235.981500 -0.467497
236.188300 -3.021189
236.395100 -0.093856
236.601800 -2.734800
236.808700 0.363251
237.015500 -0.085074
237.222300 -0.556235
237.429200 0.375428
237.636000 3.042969
237.842900 -1.072504
238.049800 -0.159902
238.256700 2.653213
238.463600 0.633581
238.670600 0.202914
238.877500 0.699569
239.084500 0.000000
239.291500 0.005711
239.498500 2.245513
239.705500 -0.427324
239.912500 -1.511692
240.119500 -1.577445
240.326600 -0.577566
240.533700 -3.012415
240.740700 0.191424
240.947800 1.226911
241.154900 0.792013
241.362100 0.268749
241.569200 2.632457
241.776400 0.109269
241.983500 -0.068576
242.190700 0.032766
242.397900 -2.984977
242.605100 0.537819
242.812400 -0.424704
243.019600 0.156289
243.226900 -0.404827
243.434100 0.251471
243.641400 0.273999
243.848700 0.930052
244.056000 -3.070776
244.263400 -0.281286
244.470700 0.170032
244.678100 0.330378
244.885400 2.945469
245.092800 -0.473191
245.300200 -0.239760
245.507600 0.308818
245.715100 -0.094094
245.922500 -0.102598
246.130000 -1.450792
246.337500 0.162365
246.544900 2.396199
246.752400 3.362859
246.960000 3.165244
247.167500 0.221056
247.375000 0.000000
247.582600 0.213471
247.790200 -1.110108
247.997800 0.711848
248.205400 3.262925
248.413000 -0.384940
248.620600 -0.458567
248.828300 0.608400
249.035900 0.204525
249.243600 0.452298
249.451300 1.015224
249.659000 0.618536
249.866700 -0.068586
250.074500 3.226342
250.282200 0.142995
250.490000 3.021603
250.697800 -0.288813
250.905600 -0.843245
251.113400 0.195130
251.321200 -0.443729
251.529000 2.008600
251.736900 1.025248
251.944700 0.050905
252.152600 0.147199
252.360500 0.089981
252.568400 -0.557873
252.776300 -0.031812
252.984300 0.220762
253.192200 1.781306
253.400200 -0.158419
253.608200 2.599883
253.816200 3.282396
254.024200 0.323736
254.232200 -0.319826
254.440200 -2.521138
254.648300 1.201176
254.856400 2.701568
255.064400 -0.491667
255.272500 3.097604
255.480600 -0.137216
255.688800 -2.812245
255.896900 -0.256711
256.105100 0.928856
256.313200 -0.317960
256.521400 0.560198
256.729600 1.128088
256.937800 3.171434
257.146000 -0.253333
257.354300 -2.965202
257.562500 0.110698
257.770800 0.000000
257.979100 3.195346
258.187400 0.213648
258.395700 -0.059604
258.604000 0.882340
258.812400 -0.377368
259.020700 3.026125
259.229100 0.519741
259.437500 -0.094885
259.645900 0.243176
259.854300 2.878522
260.062700 -0.151899
260.271100 -0.500712
260.479600 0.103287
260.688100 -0.327569
260.896500 0.329091
261.105000 2.089905
261.313500 2.621176
261.522100 1.574501
261.730600 -0.359606
261.939200 -0.603998
262.147700 0.066133
262.356300 -0.410261
262.564900 2.536558
262.773500 1.143983
262.982200 0.320435
263.190800 -3.167908
263.399500 0.241624
263.608100 0.286969
263.816800 -0.270938
264.025500 0.181355
264.234200 -0.653882
264.442900 -0.439682
264.651700 -0.305001
264.860400 0.899330
265.069200 0.149694
265.278000 0.348865
265.486800 -0.351672
265.695600 2.450249
265.904400 -0.095644
266.113300 -0.375089
266.322100 -0.044555
266.531000 -0.992439
266.739900 -0.423204
266.948800 0.224348
267.157700 0.884795
267.366600 0.481347
267.575500 -0.230449
267.784500 0.550228
267.993500 2.994757
268.202400 0.656944
268.411400 -0.056854
268.620500 -0.260013
268.829500 -0.547278
269.038500 -0.644046
269.247600 -0.036125
269.456600 -0.925898
269.665700 -0.080823
269.874800 -0.221311
270.083900 0.147384
270.293100 0.000000
270.502200 -0.058793
270.711400 -1.104365
270.920500 0.171972
271.129700 0.365290
271.338900 0.495474
271.548100 -0.684612
271.757300 0.152248
271.966600 -0.011037
272.175800 -0.032447
272.385100 3.132580
272.594400 -0.281799
272.803700 3.021603
273.013000 -0.641569
273.222300 2.994757
273.431600 -0.027044
273.641000 3.209783
273.850400 -0.466340
274.059700 2.945961
274.269100 0.054179
274.478500 2.950851
274.688000 1.285927
274.897400 -0.234428
275.106900 -1.235010
275.316300 -0.106289
275.525800 -0.054817
275.735300 -3.054613
275.944800 2.965672
276.154300 0.200360
276.363900 0.415142
276.573400 -0.230670
276.783000 0.064214
276.992600 2.846955
277.202200 0.964489
277.411800 0.504926
277.621400 -0.421370
277.831000 3.118595
278.040700 -0.128030
278.250300 -0.057745
278.460000 -0.142950
278.669700 -0.155311
278.879400 -0.468489
279.089100 -0.293012
279.298900 -0.332759
279.508600 0.160611
279.718400 0.317563
279.928100 -3.029789
280.137900 3.215373
280.347700 -0.232647
280.557600 -0.024031
280.767400 0.286969
280.977200 -0.122161
281.187100 -2.877947
281.397000 0.166143
281.606900 -3.021189
281.816800 0.051573
282.026700 2.357935
282.236600 2.935003
282.446600 0.059175
282.656500 -3.021189
282.866500 -0.455792
283.076500 -0.665004
283.286500 0.160071
283.496500 0.568202
283.706500 2.907411
283.916600 -0.282624
284.126600 0.845098
284.336700 0.031643
284.546800 1.383591
284.756900 1.821595
284.967000 -0.404504
285.177100 0.021780
285.387300 -2.994317
285.597400 -0.157026
285.807600 -1.040803
286.017800 0.482001
286.228000 -2.429752
286.438200 -0.151818
286.648400 -0.044461
286.858700 -0.115103
287.068900 2.760422
287.279200 -0.274933
287.489500 0.846772
287.699800 0.944121
287.910100 2.621176
288.120400 0.123513
288.330800 2.220108
288.541100 0.210564
288.751500 2.217484
288.961900 -0.287134
289.172300 -3.086004
289.382700 0.454680
289.593100 0.913284
289.803500 -3.062958
290.014000 0.245658
290.224500 -0.281259
290.434900 -3.021189
290.645400 -0.245886
290.855900 0.055517
291.066500 0.624990
291.277000 -0.190205
291.487500 -0.346306
291.698100 -0.043607
291.908700 0.255671
292.119300 0.341514
292.329900 -0.155138
292.540500 -0.563459
292.751100 -0.205499
292.961800 -2.974972
293.172400 0.551298
293.383100 -2.797960
293.593800 0.532359
293.804500 -0.382403
294.015200 -0.411183
294.226000 -2.912753
294.436700 2.799341
294.647500 2.866287
294.858200 -0.145815
295.069000 -0.130730
295.279800 2.736397
295.490600 -2.944976
295.701500 1.490983
295.912300 3.082785
296.123200 0.464539
296.334000 -0.063857
296.544900 0.136683
296.755800 3.220892
296.966700 2.872156
297.177700 0.424823
297.388600 -0.179941
297.599500 2.269513
297.810500 -0.052131
298.021500 3.149219
298.232500 0.221141
298.443500 -1.322219
298.654500 0.069648
298.865600 0.191308
299.076600 -0.581634
299.287700 -3.086004
299.498800 3.201124
299.709900 0.545977
299.921000 0.321764
300.132100 0.137162
300.343200 3.270446
300.554400 2.769377
300.765500 0.391300
300.976700 -1.897627
301.187900 0.191734
301.399100 -0.161391
301.610300 -0.025968
301.821500 0.138654
302.032800 0.837315
302.244100 0.587698
302.455300 -0.010284
302.666600 3.063333
302.877900 0.526504
303.089200 -0.409963
303.300600 0.426594
303.511900 2.970812
303.723300 -0.273828
303.934600 -0.016663
304.146000 -1.617300
304.357400 -0.187167
304.568800 -0.301956
304.780300 0.302427
304.991700 0.322219
305.203100 2.271842
305.414600 0.345902
305.626100 -0.752029
305.837600 -0.030346
306.049100 -0.227486
306.260600 -0.221385
306.472200 -0.739464
306.683700 0.284148
306.895300 -0.277292
307.106900 0.307962
307.318400 0.282580
307.530100 -0.102397
307.741700 -0.106573
307.953300 0.022181
308.165000 -2.549003
308.376600 0.425812
308.588300 0.229878
308.800000 -0.012268
309.011700 0.722348
309.223400 -0.218782
309.435100 -0.451209
309.646900 0.347346
309.858600 3.054996
310.070400 3.129045
310.282200 -0.982594
310.494000 0.312158
310.705800 3.168203
310.917600 3.047275
311.129500 -0.024998
311.341300 3.296446
311.553200 -0.184326
311.765100 3.139249
311.977000 1.574501
312.188900 0.092754
312.400800 0.295800
312.612700 0.260789
312.824700 1.209249
313.036600 0.517491
313.248600 0.387058
313.460600 0.401870
313.672600 0.557410
313.884600 0.819188
314.096700 -0.099955
314.308700 1.323673
314.520800 0.952540
314.732800 0.881639
314.944900 -0.154902
315.157000 1.048992
315.369200 -0.025103
315.581300 -0.045937
315.793400 2.653213
316.005600 1.143557
316.217700 0.212996
316.429900 0.247794
316.642100 0.619199
316.854300 0.159273
317.066600 0.508238
317.278800 0.564659
317.491100 3.192289
317.703300 0.187349
317.915600 0.578775
318.127900 0.352338
318.340200 0.103287
318.552500 3.255273
318.764900 -0.138131
318.977200 0.524839
319.189600 3.030195
319.401900 0.629364
319.614300 -0.111772
319.826700 -0.143971
320.039200 0.101208
320.251600 0.006966
320.464000 3.336260
320.676500 -0.198155
320.889000 -0.083620
321.101400 0.536644
321.313900 3.310268
321.526500 0.677322
321.739000 3.376577
321.951500 0.811090
322.164100 0.267476
322.376600 0.515471
322.589200 2.158739
322.801800 -0.102952
323.014400 0.577783
323.227000 0.892478
323.439700 0.462461
323.652300 3.471292
323.865000 0.548674
324.077700 0.858271
324.290400 1.227483
324.503100 0.285158
324.715800 0.136466
324.928500 0.283308
325.141200 1.070307
325.354000 0.219027
325.566800 0.500013
325.779600 0.200158
325.992400 0.449606
326.205200 0.344469
326.418000 3.474362
326.630800 0.452772
326.843700 0.544306
327.056600 0.350277
327.269400 0.174929
327.482300 3.531990
327.695200 0.143919
327.908200 1.425610
328.121100 0.991532
328.334000 1.471340
328.547000 1.421845
328.760000 0.250090
328.973000 0.500526
329.186000 0.619335
329.399000 0.480714
329.612000 0.622247
329.825100 0.865017
330.038100 0.398765
330.251200 1.305700
330.464300 0.496630
330.677400 0.534769
330.890500 0.774450
331.103600 1.132017
331.316700 0.563513
331.529900 1.894870
331.743100 0.347089
331.956200 0.296601
332.169400 1.425548
332.382600 0.597114
332.595900 0.525491
332.809100 0.412477
333.022300 0.453217
333.235600 3.633468
333.448900 0.634045
333.662200 0.562886
333.875500 0.468224
334.088800 0.137858
334.302100 3.740521
334.515400 0.504700
334.728800 0.638410
334.942200 1.164558
335.155500 3.580241
335.368900 3.756864
335.582300 0.280096
335.795800 3.676968
336.009200 0.842365
336.222700 0.558349
336.436100 0.847311
336.649600 3.795949
336.863100 1.102022
337.076600 2.218833
337.290100 0.413825
337.503600 0.737599
337.717200 1.097477
337.930700 0.939527
338.144300 3.781037
338.357900 0.681318
338.571500 0.414639
338.785100 0.624749
338.998700 0.351807
339.212400 3.815312
339.426000 0.583422
339.639700 3.667266
339.853300 0.875732
340.067000 1.658603
340.280700 0.744405
340.494500 3.790074
340.708200 0.350217
340.921900 1.044595
341.135700 0.863189
341.349500 1.301514
341.563300 3.781827
341.777100 0.669183
341.990900 0.605082
342.204700 0.484210
342.418500 0.707564
342.632400 0.767503
342.846300 0.629649
343.060100 3.693023
343.274000 1.072988
343.487900 0.743026
343.701900 0.385251
343.915800 0.637686
344.129700 1.211799
344.343700 3.778006
344.557700 0.832216
344.771700 1.128453
344.985700 1.252689
345.199700 2.071056
345.413700 1.446516
345.627700 0.668387
345.841800 0.807563
346.055900 1.070935
346.269900 0.503906
346.484000 0.964117
346.698100 1.144444
346.912300 0.613551
347.126400 1.331980
347.340600 3.899164
347.554700 1.668420
347.768900 0.594509
347.983100 3.942058
348.197300 0.721338
348.411500 0.738481
348.625700 0.758872
348.840000 1.020669
349.054200 0.840081
349.268500 1.184992
349.482800 3.888011
349.697100 3.921634
349.911400 1.257696
350.125700 3.910571
350.340000 1.416731
350.554400 0.936211
350.768700 0.866311
350.983100 0.795932
351.197500 1.049768
351.411900 3.984437
351.626300 3.954918
351.840700 1.470271
352.055200 3.931966
352.269600 0.810560
352.484100 1.309377
352.698600 1.077319
352.913100 3.896857
353.127600 1.103486
353.342100 3.948266
353.556600 1.029511
353.771200 1.924749
353.985800 0.712173
354.200300 0.909709
354.414900 1.586642
354.629500 3.907143
354.844100 1.092815
355.058800 1.272041
355.273400 0.842646
355.488100 1.014166
355.702700 1.056949
355.917400 1.509168
356.132100 1.163047
356.346800 1.407968
356.561500 0.903649
356.776300 1.425324
356.991000 1.647865
357.205800 1.325451
357.420600 1.086744
357.635300 1.433042
357.850100 0.726805
358.065000 0.945439
358.279800 1.005577
358.494600 1.410992
358.709500 0.809031
358.924300 1.483039
359.139200 1.518078
359.354100 0.696389
359.569000 1.209575
359.783900 1.287426
359.998900 0.777338
360.213800 1.207702
360.428800 1.107416
360.643800 3.982497
360.858700 0.655380
361.073700 4.040048
361.288800 0.927198
361.503800 4.026452
361.718800 0.708291
361.933900 1.653298
362.148900 1.022549
362.364000 1.182468
362.579100 1.264885
362.794200 1.321745
363.009300 0.695673
363.224500 4.031206
363.439600 1.809437
363.654800 0.803520
363.869900 4.028164
364.085100 1.422251
364.300300 0.812574
364.515500 0.762196
364.730800 1.077868
364.946000 1.562847
365.161200 1.280428
365.376500 1.656608
365.591800 1.740937
365.807100 0.778358
366.022400 0.894780
366.237700 0.830539
366.453000 1.173586
366.668400 1.371705
366.883700 1.295736
367.099100 1.014664
367.314500 1.933680
367.529900 0.896423
367.745300 1.051720
367.960700 2.006590
368.176100 1.341023
368.391600 0.973128
368.607000 0.908221
368.822500 4.111901
369.038000 1.095560
369.253500 1.006983
369.469000 0.766931
369.684500 1.823107
369.900100 1.185585
370.115600 0.906259
370.331200 0.749153
370.546800 1.442196
370.762400 1.379217
370.978000 2.539788
371.193600 1.074561
371.409200 4.124798
371.624900 4.160709
371.840500 1.607097
372.056200 1.429723
372.271900 0.791072
372.487600 0.784857
372.703300 1.667517
372.919000 1.125961
373.134800 0.900881
373.350500 1.335675
373.566300 4.154637
373.782000 1.334634
373.997800 1.401600
374.213600 1.182960
374.429400 2.015324
374.645300 0.820732
374.861100 1.467480
375.077000 0.905829
375.292800 0.854766
375.508700 1.056905
375.724600 4.210586
375.940500 0.981615
376.156400 1.426496
376.372400 0.979679
376.588300 1.598531
376.804300 1.685716
377.020300 1.754820
377.236200 2.043482
377.452200 1.552146
377.668200 4.261620
377.884300 1.420880
378.100300 1.104354
378.316400 1.862127
378.532400 1.003387
378.748500 1.280166
378.964600 1.049764
379.180700 1.007364
379.396800 1.196301
379.612900 1.578024
379.829100 1.270171
380.045200 4.285760
380.261400 1.321674
380.477600 4.319085
380.693800 1.965435
380.910000 4.341138
381.126200 4.287174
381.342400 1.925508
381.558700 1.049826
381.774900 2.021435
381.991200 1.083687
382.207500 1.673193
382.423800 1.300831
382.640100 1.589505
382.856400 2.074164
383.072800 1.177112
383.289100 1.888644
383.505500 2.335458
383.721900 1.920690
383.938200 1.038441
384.154600 4.345099
384.371100 1.111695
384.587500 1.345331
384.803900 1.540815
385.020400 1.254794
385.236800 2.089160
385.453300 1.148224
385.669800 1.365730
385.886300 1.608696
386.102800 1.838982
386.319400 1.299899
386.535900 4.371972
386.752500 1.688743
386.969000 1.541598
387.185600 1.438362
387.402200 1.337252
387.618800 3.196453
387.835500 1.118976
388.052100 1.165110
388.268700 2.049628
388.485400 1.381571
388.702100 4.414907
388.918800 1.364159
389.135500 4.421044
389.352200 1.299667
389.568900 1.372010
389.785600 1.058606
390.002400 1.223528
390.219200 1.548730
390.435900 1.425851
390.652700 0.985271
390.869500 0.973134
391.086300 1.305144
391.303200 1.409627
391.520000 1.043918
391.736900 1.191989
391.953700 1.171929
392.170600 1.172490
392.387500 1.244945
392.604400 1.289283
392.821300 0.930292
393.038300 0.997384
393.255200 1.043235
393.472200 1.143519
393.689100 1.168081
393.906100 1.307536
394.123100 0.953383
394.340100 1.265890
394.557200 1.040743
394.774200 1.017170
394.991200 1.081088
395.208300 1.282452
395.425400 1.176874
395.642500 1.064793
395.859600 1.005144
396.076700 1.346374
396.293800 0.905053
396.510900 1.110420
396.728100 1.024837
396.945300 0.984163
397.162400 0.942370
397.379600 0.949179
397.596800 0.834349
397.814000 0.918196
398.031300 0.974989
398.248500 0.900211
398.465800 0.949001
398.683000 0.989276
398.900300 0.822413
399.117600 1.059094
399.334900 0.867648
399.552200 0.928550
399.769600 0.758813
399.986900 0.915283
400.204300 0.695350
400.421600 0.772905
400.639000 0.843266
400.856400 0.870537
401.073800 0.626987
401.291200 0.840299
401.508700 0.761833
401.726100 0.878045
401.943600 0.734397
402.161000 0.940100
402.378500 0.807724
402.596000 0.688075
402.813500 0.738214
403.031000 0.800985
403.248600 0.746505
403.466100 0.730118
403.683700 0.724741
403.901300 0.772700
404.118900 0.730386
404.336500 0.633071
404.554100 0.669116
404.771700 0.703832
404.989300 0.613950
405.207000 0.774124
405.424600 0.612366
405.642300 0.670983
405.860000 0.699282
406.077700 0.673117
406.295400 0.628202
406.513100 0.625276
406.730900 0.561782
406.948600 0.678791
407.166400 0.654710
407.384200 0.582762
407.602000 0.619551
407.819800 0.546947
408.037600 0.536439
408.255400 0.609884
408.473300 0.636562
408.691100 0.608870
408.909000 0.553562
409.126900 0.558172
409.344800 0.609133
409.562700 0.536447
409.780600 0.617364
409.998500 0.472404
410.216500 0.653135
410.434400 0.546426
410.652400 0.533912
410.870400 0.480770
411.088400 0.544441
411.306400 0.569482
411.524400 0.573885
411.742400 0.485788
411.960500 0.496956
412.178500 0.522849
412.396600 0.531155
412.614700 0.505972
412.832800 0.502295
413.050900 0.544126
413.269000 0.505126
413.487100 0.484220
413.705300 0.431832
413.923400 0.465115
414.141600 0.496955
414.359800 0.517538
414.578000 0.432523
414.796200 0.466612
415.014400 0.490952
415.232600 0.470552
415.450900 0.500997
415.669200 0.392552
415.887400 0.482581
416.105700 0.448977
416.324000 0.501663
416.542300 0.428809
416.760600 0.442544
416.979000 0.411617
417.197300 0.429194
417.415700 0.426981
417.634100 0.429076
417.852400 0.409874
418.070800 0.449705
418.289300 0.399457
418.507700 0.378999
418.726100 0.396434
418.944600 0.448466
419.163000 0.415136
419.381500 0.431817
419.600000 0.439784
419.818500 0.387188
420.037000 0.438438
420.255500 0.405532
420.474100 0.428211
420.692600 0.416614
420.911200 0.356696
421.129800 0.355751
421.348300 0.402042
421.566900 0.394956
421.785600 0.314676
422.004200 0.382561
422.222800 0.344564
422.441500 0.400875
422.660100 0.339516
422.878800 0.376371
423.097500 0.314543
423.316200 0.398894
423.534900 0.335362
423.753600 0.368220
423.972400 0.371713
424.191100 0.341803
424.409900 0.350502
424.628700 0.389944
424.847500 0.361915
425.066300 0.329326
425.285100 0.345315
425.503900 0.308121
425.722800 0.341696
425.941600 0.362416
426.160500 0.348943
426.379300 0.294196
426.598200 0.301386
426.817100 0.333865
427.036100 0.314840
427.255000 0.359721
427.473900 0.337202
427.692900 0.349568
427.911800 0.371877
428.130800 0.351984
428.349800 0.311747
428.568800 0.333482
428.787800 0.275826
429.006800 0.314313
429.225900 0.345754
429.444900 0.342823
429.664000 0.289515
429.883100 0.346849
430.102200 0.322444
430.321300 0.333421
430.540400 0.323496
430.759500 0.325292
430.978700 0.337795
431.197800 0.313491
431.417000 0.297440
431.636200 0.292745
431.855300 0.306741
432.074500 0.296291
432.293800 0.272899
432.513000 0.333222
432.732200 0.285289
432.951500 0.341702
433.170700 0.328874
433.390000 0.359638
433.609300 0.337486
433.828600 0.335037
434.047900 0.346110
434.267300 0.354171
434.486600 0.298847
434.705900 0.308381
434.925300 0.328186
435.144700 0.354363
435.364100 0.290505
435.583500 0.317012
435.802900 0.282067
436.022300 0.327781
436.241800 0.329534
436.461200 0.292720
436.680700 0.315276
436.900100 0.333318
437.119600 0.320729
437.339100 0.305361
437.558600 0.302698
437.778200 0.332588
437.997700 0.311050
438.217300 0.319915
438.436800 0.306027
438.656400 0.332765
438.876000 0.325927
439.095600 0.294124
439.315200 0.308887
439.534800 0.287994
439.754500 0.293574
439.974100 0.329692
440.193800 0.320834
440.413500 0.352788
440.633100 0.332064
440.852800 0.338790
441.072500 0.334464
441.292300 0.345179
441.512000 0.353548
441.731800 0.322341
441.951500 0.323521
442.171300 0.324531
442.391100 0.308227
442.610900 0.328174
442.830700 0.323919
443.050500 0.341752
443.270300 0.281744
443.490200 0.292471
443.710100 0.306831
443.929900 0.358286
444.149800 0.352566
444.369700 0.319182
444.589600 0.313919
444.809500 0.331751
445.029500 0.331420
445.249400 0.338069
445.469400 0.343536
445.689400 0.322938
445.909300 0.334793
446.129300 0.352107
446.349300 0.330466
446.569400 0.342352
446.789400 0.356459
447.009400 0.359465
447.229500 0.350272
447.449600 0.355420
447.669600 0.327918
447.889700 0.338492
448.109800 0.326766
448.330000 0.348410
448.550100 0.405053
448.770200 0.345770
448.990400 0.369269
449.210600 0.390736
449.430700 0.355096
449.650900 0.360696
449.871100 0.377089
450.091400 0.361265
450.311600 0.395948
450.531800 0.375988
450.752100 0.332816
450.972400 0.398188
451.192600 0.368726
451.412900 0.383662
451.633200 0.350328
451.853500 0.367586
452.073900 0.359238
452.294200 0.397615
452.514600 0.414920
452.734900 0.387213
452.955300 0.376642
453.175700 0.371002
453.396100 0.412494
453.616500 0.388662
453.836900 0.393609
454.057400 0.364383
454.277800 0.382521
454.498300 0.416771
454.718800 0.413791
454.939300 0.449855
455.159700 0.392894
455.380300 0.414070
455.600800 0.429229
455.821300 0.413696
456.041900 0.450041
456.262400 0.418582
456.483000 0.421962
456.703600 0.402521
456.924200 0.417925
457.144800 0.409388
457.365400 0.424640
457.586000 0.427324
457.806700 0.457480
458.027400 0.428568
458.248000 0.466112
458.468700 0.489861
458.689400 0.425278
458.910100 0.449829
459.130800 0.468380
459.351600 0.489079
459.572300 0.438901
459.793100 0.485787
460.013800 0.458013
460.234600 0.497084
460.455400 0.457844
460.676200 0.467843
460.897000 0.468138
461.117800 0.532323
461.338700 0.518199
461.559500 0.487145
461.780400 0.484352
462.001300 0.489402
462.222200 0.493465
462.443100 0.521107
462.664000 0.513594
462.884900 0.496377
463.105900 0.514368
463.326800 0.518730
463.547800 0.587890
463.768700 0.553031
463.989700 0.575112
464.210700 0.559559
464.431700 0.530584
464.652800 0.557109
464.873800 0.582681
465.094800 0.534620
465.315900 0.549883
465.537000 0.584830
465.758100 0.605646
465.979200 0.571014
466.200300 0.547623
466.421400 0.613833
466.642500 0.574171
466.863700 0.594570
467.084800 0.524343
467.306000 0.544823
467.527200 0.578315
467.748400 0.656123
467.969600 0.599175
468.190800 0.635224
468.412000 0.648398
468.633300 0.580467
468.854500 0.669023
469.075800 0.582715
469.297000 0.600882
469.518300 0.613268
469.739600 0.668912
469.961000 0.615414
470.182300 0.615306
470.403600 0.618349
470.625000 0.741978
470.846300 0.637009
471.067700 0.649770
471.289100 0.683764
471.510500 0.636586
471.731900 0.668863
471.953300 0.718360
472.174800 0.713394
472.396200 0.626254
472.617700 0.663591
472.839100 0.676004
473.060600 0.692468
473.282100 0.777497
473.503600 0.663306
473.725100 0.720888
473.946700 0.716426
474.168200 0.707252
474.389800 0.715770
474.611300 0.708047
474.832900 0.784404
475.054500 0.731809
475.276100 0.723104
475.497700 0.747407
475.719300 0.806777
475.941000 0.770084
476.162600 0.694529
476.384300 0.699706
476.606000 0.787131
476.827700 0.718570
477.049400 0.834434
477.271100 0.783712
477.492800 0.762184
477.714500 0.738881
477.936300 0.749284
478.158000 0.740380
478.379800 0.851505
478.601600 0.890928
478.823400 0.772336
479.045200 0.816359
479.267000 0.919060
479.488800 0.864195
479.710700 0.825125
479.932500 0.855836
480.154400 0.854824
480.376300 0.900735
480.598200 0.910681
480.820100 0.812796
481.042000 0.895436
481.263900 0.909231
481.485900 0.823034
481.707800 0.856950
481.929800 0.867320
482.151700 0.965025
482.373700 0.904615
482.595700 0.830777
482.817700 0.861672
483.039800 0.882522
483.261800 1.019673
483.483800 0.877047
483.705900 0.876394
483.928000 0.964252
484.150100 0.872455
484.372100 1.016173
484.594300 0.959584
484.816400 0.936922
485.038500 0.956934
485.260600 0.960895
485.482800 1.002091
485.705000 0.995538
485.927100 0.977320
486.149300 0.987666
486.371500 0.975047
486.593700 1.039397
486.816000 1.052107
487.038200 0.938776
487.260500 0.904145
487.482700 0.979589
487.705000 0.906154
487.927300 1.015225
488.149600 0.902850
488.371900 1.040093
488.594200 0.992476
488.816500 1.031769
489.038900 1.055431
489.261200 1.128809
489.483600 1.013665
489.706000 1.059867
489.928400 1.058125
490.150800 0.983001
490.373200 1.078818
490.595600 1.190532
490.818000 0.960223
491.040500 1.013523
491.263000 0.986438
491.485400 1.047701
491.707900 1.043329
491.930400 1.086993
492.152900 0.981490
492.375500 1.085525
492.598000 1.072855
492.820500 1.004363
493.043100 1.029761
493.265700 1.202276
493.488200 1.098837
493.710800 1.023289
493.933400 0.986422
494.156100 1.046342
494.378700 1.132063
494.601300 1.184185
494.824000 1.063161
495.046600 1.156268
495.269300 0.971525
495.492000 1.125280
495.714700 1.174733
495.937400 1.135476
496.160100 1.197750
496.382900 1.126187
496.605600 1.080902
496.828400 0.996377
497.051100 1.101653
497.273900 1.224975
497.496700 1.064324
497.719500 1.019862
497.942300 0.969318
498.165200 1.231262
498.388000 1.190010
498.610900 1.057545
498.833700 1.043420
499.056600 1.177305
499.279500 1.205561
499.502400 1.295615
499.725300 1.077915
499.948200 1.197360
500.171200 1.117529
500.394100 1.117880
500.617100 1.317578
500.840000 1.051332
501.063000 1.187291
501.286000 1.090047
501.509000 1.029431
501.732000 1.102940
501.955100 1.141536
502.178100 1.211975
502.401200 1.246491
502.624200 1.189192
502.847300 1.230042
503.070400 0.976168
503.293500 1.177885
503.516600 1.209567
503.739700 0.984880
503.962800 1.200190
504.186000 1.241913
504.409200 1.238334
504.632300 1.170774
504.855500 1.116877
505.078700 1.159564
505.301900 1.168738
505.525100 1.109066
505.748300 1.153526
505.971600 1.005909
506.194800 1.174501
506.418100 0.945506
506.641400 1.219731
506.864700 1.262658
507.088000 1.045705
507.311300 1.196743
507.534600 1.398362
507.757900 1.137353
507.981300 1.245243
508.204600 1.050762
508.428000 1.297388
508.651400 1.169974
508.874800 1.076973
509.098200 1.089512
509.321600 1.155121
509.545000 1.178893
509.768500 1.219256
509.991900 1.230174
510.215400 1.255636
510.438800 1.074992
510.662300 1.203439
510.885800 1.141889
511.109300 1.178222
511.332900 1.222213
511.556400 1.196473
511.779900 1.246725
512.003500 1.067395
512.227000 1.094303
512.450600 1.273549
512.674200 1.037784
512.897800 1.340296
513.121400 1.144216
513.345100 1.015254
513.568700 1.124560
513.792300 0.904395
514.016000 1.420074
514.239700 1.069623
514.463400 0.950405
514.687100 1.088837
514.910800 1.483622
515.134500 0.997164
515.358200 0.936963
515.581900 1.194942
515.805700 1.100728
516.029500 1.340724
516.253200 1.095722
516.477000 1.070010
516.700800 1.194829
516.924600 1.368743
517.148500 0.990290
517.372300 1.141218
517.596100 1.125255
517.820000 1.139683
518.043900 1.119053
518.267700 0.950512
518.491600 1.047498
518.715500 1.130312
518.939500 1.426763
519.163400 1.002453
519.387300 0.968132
519.611300 1.069069
519.835200 0.943897
520.059200 1.165813
520.283200 1.042317
520.507200 1.053623
520.731200 1.046770
520.955200 1.072698
521.179200 1.207392
521.403300 0.860413
521.627300 1.034123
521.851400 0.906267
522.075500 0.964826
522.299600 0.961708
522.523700 0.996173
522.747800 1.051914
522.971900 1.067692
523.196000 0.919487
523.420200 0.978161
523.644300 0.958441
523.868500 1.260092
524.092700 1.070439
524.316900 1.054090
524.541100 0.889543
524.765300 1.188546
524.989500 0.988250
525.213800 0.895876
525.438000 0.871207
525.662300 0.965032
525.886500 0.955316
526.110800 0.814170
526.335100 0.823347
526.559400 0.845417
526.783700 0.888298
527.008100 0.974063
527.232400 0.911262
527.456800 0.991279
527.681100 0.919058
527.905500 0.867903
528.129900 1.060156
528.354300 0.922838
528.578700 0.847207
528.803100 0.977237
529.027600 0.905668
529.252000 0.908531
529.476500 0.919358
529.700900 0.861175
529.925400 0.832910
530.149900 0.864409
530.374400 0.995687
530.598900 0.794654
530.823400 0.888268
531.048000 0.884784
531.272500 0.809433
531.497100 1.023972
531.721700 0.845605
531.946200 0.990746
532.170800 0.848850
532.395400 0.702666
532.620000 0.917632
532.844700 0.789396
533.069300 0.836514
533.294000 0.815969
533.518600 0.757086
533.743300 0.850547
533.968000 0.828915
534.192700 0.778200
534.417400 0.804179
534.642100 0.896096
534.866800 0.701195
535.091600 0.811694
535.316300 0.663157
535.541100 0.819748
535.765900 0.734794
535.990700 0.790456
536.215500 0.688038
536.440300 0.761043
536.665100 0.675556
536.889900 0.692981
537.114800 0.654541
537.339600 0.730438
537.564500 0.674438
537.789400 0.712213
538.014300 0.715747
538.239200 0.608114
538.464100 0.726525
538.689000 0.662631
538.913900 0.762689
539.138900 0.636663
539.363800 0.623518
539.588800 0.636023
539.813800 0.656219
540.038800 0.670213
540.263800 0.639740
540.488800 0.617582
540.713800 0.587069
540.938900 0.683295
541.163900 0.695344
541.389000 0.599288
541.614000 0.559814
541.839100 0.639075
542.064200 0.575514
542.289300 0.599740
542.514400 0.561195
542.739600 0.589311
542.964700 0.587043
543.189900 0.577130
543.415000 0.559480
543.640200 0.603021
543.865400 0.553303
544.090600 0.576446
544.315800 0.554064
544.541000 0.562665
544.766200 0.605545
544.991500 0.576315
545.216700 0.537176
545.442000 0.574259
545.667300 0.560243
545.892600 0.534633
546.117900 0.520701
546.343200 0.525610
546.568500 0.510800
546.793800 0.509449
547.019200 0.451214
547.244500 0.520013
547.469900 0.528266
547.695300 0.476641
547.920600 0.464811
548.146000 0.482775
548.371500 0.463330
548.596900 0.500864
548.822300 0.445191
549.047800 0.445242
549.273200 0.461532
549.498700 0.419208
549.724200 0.453203
549.949600 0.464844
550.175100 0.394867
550.400700 0.412284
550.626200 0.456848
550.851700 0.426332
551.077300 0.427429
551.302800 0.410700
551.528400 0.374210
551.754000 0.461417
551.979600 0.429815
552.205200 0.390509
552.430800 0.409548
552.656400 0.406694
552.882000 0.349309
553.107700 0.444093
553.333300 0.362947
553.559000 0.389720
553.784700 0.343059
554.010400 0.388673
554.236100 0.350621
554.461800 0.365235
554.687500 0.341511
554.913200 0.328065
555.139000 0.329122
555.364800 0.328562
555.590500 0.326782
555.816300 0.338741
556.042100 0.340855
556.267900 0.304027
556.493700 0.309498
556.719500 0.343390
556.945400 0.289154
557.171200 0.338776
557.397100 0.349838
557.623000 0.299075
557.848800 0.256041
558.074700 0.304435
558.300600 0.265847
558.526600 0.290862
558.752500 0.271969
558.978400 0.282406
559.204400 0.262778
559.430300 0.247181
559.656300 0.290128
559.882300 0.269697
560.108300 0.280322
560.334300 0.260068
560.560300 0.263323
560.786300 0.255466
561.012400 0.269464
561.238400 0.237350
561.464500 0.242594
561.690500 0.266411
561.916600 0.251438
562.142700 0.246965
562.368800 0.230662
562.594900 0.254344
562.821100 0.245719
563.047200 0.230463
563.273300 0.217307
563.499500 0.201590
563.725700 0.224283
563.951900 0.193603
564.178100 0.237423
564.404300 0.228722
564.630500 0.205720
564.856700 0.229027
565.082900 0.210278
565.309200 0.202949
565.535500 0.213962
565.761700 0.188199
565.988000 0.185233
566.214300 0.160466
566.440600 0.202380
566.666900 0.200144
566.893200 0.190092
567.119600 0.192174
567.345900 0.187419
567.572300 0.179438
567.798700 0.185095
568.025000 0.182751
568.251400 0.195757
568.477800 0.174938
568.704300 0.169994
568.930700 0.167032
569.157100 0.179097
569.383600 0.178571
569.610000 0.170324
569.836500 0.173291
570.063000 0.145918
570.289500 0.176447
570.516000 0.162523
570.742500 0.153826
570.969000 0.152398
571.195600 0.146373
571.422100 0.159095
571.648700 0.154005
571.875200 0.150350
572.101800 0.151139
572.328400 0.147540
572.555000 0.150603
572.781600 0.149564
573.008200 0.138023
573.234900 0.152467
573.461500 0.140425
573.688200 0.138575
573.914900 0.137505
574.141500 0.123817
574.368200 0.127899
574.594900 0.127595
574.821600 0.126133
575.048400 0.137997
575.275100 0.128616
575.501800 0.121107
575.728600 0.116172
575.955400 0.117375
576.182100 0.131156
576.408900 0.120802
576.635700 0.119415
576.862600 0.124149
577.089400 0.112026
577.316200 0.108422
577.543100 0.113055
577.769900 0.102696
577.996800 0.113614
578.223700 0.114119
578.450500 0.107738
578.677400 0.107389
578.904400 0.104795
579.131300 0.100808
579.358200 0.096490
579.585100 0.096318
579.812100 0.104466
580.039100 0.095947
580.266000 0.083567
580.493000 0.093279
580.720000 0.091724
580.947000 0.091436
581.174100 0.092256
581.401100 0.090214
581.628100 0.088860
581.855200 0.085404
582.082200 0.088495
582.309300 0.086898
582.536400 0.078369
582.763500 0.073143
582.990600 0.071406
583.217700 0.064965
583.444900 0.075286
583.672000 0.072200
583.899100 0.068614
584.126300 0.062635
584.353500 0.068021
584.580700 0.069886
584.807900 0.083988
585.035100 0.073258
585.262300 0.072881
585.489500 0.069556
585.716700 0.068171
585.944000 0.066953
586.171300 0.072962
586.398500 0.070058
586.625800 0.069961
586.853100 0.056919
587.080400 0.068245
587.307700 0.053114
587.535000 0.061870
587.762400 0.063854
587.989700 0.062950
588.217100 0.065540
588.444500 0.057722
588.671800 0.051900
588.899200 0.058311
589.126600 0.050660
589.354000 0.067719
589.581500 0.058323
589.808900 0.054238
590.036300 0.053070
590.263800 0.040093
590.491300 0.063220
590.718700 0.048800
590.946200 0.055618
591.173700 0.042340
591.401200 0.044431
591.628800 0.051610
591.856300 0.055748
592.083800 0.052783
592.311400 0.041305
592.538900 0.049429
592.766500 0.049696
592.994100 0.053972
593.221700 0.046394
593.449300 0.052691
593.676900 0.052040
593.904600 0.053832
594.132200 0.047278
594.359800 0.045689
594.587500 0.039210
594.815200 0.046645
595.042900 0.047173
595.270500 0.052189
595.498300 0.043497
595.726000 0.045828
595.953700 0.042718
596.181400 0.038251
596.409200 0.040080
596.636900 0.055590
596.864700 0.050562
597.092500 0.049868
597.320300 0.048266
597.548100 0.039184
597.775900 0.045953
598.003700 0.040810
598.231500 0.036524
598.459400 0.038898
598.687200 0.064054
598.915100 0.046689
599.143000 0.039898
599.370900 0.046443
599.598800 0.047400
599.826700 0.040973
600.054600 0.045418
600.282500 0.039957
600.510500 0.030398
600.738400 0.027321
600.966400 0.030159
601.194400 0.038956
601.422300 0.034298
601.650300 0.025302
601.878300 0.031947
602.106400 0.042264
602.334400 0.027990
602.562400 0.040361
602.790500 0.046871
603.018500 0.035293
603.246600 0.033033
603.474700 0.034509
603.702800 0.040370
603.930900 0.042677
604.159000 0.034589
604.387100 0.037284
604.615200 0.033067
604.843400 0.032513
605.071500 0.026603
605.299700 0.028029
605.527900 0.033049
605.756100 0.033967
605.984300 0.029309
606.212500 0.020047
606.440700 0.010812
606.668900 0.012142
606.897200 0.012805
607.125400 0.022136
607.353700 0.025044
607.581900 0.036168
607.810200 0.015870
608.038500 0.020281
608.266800 0.030790
608.495100 0.020273
608.723500 0.009793
608.951800 0.024459
609.180100 0.017224
609.408500 0.032194
609.636900 0.004211
609.865300 0.020859
610.093600 0.022031
610.322000 0.029654
610.550500 0.005487
610.778900 0.015904
611.007300 0.018950
611.235700 0.021720
611.464200 0.027947
611.692700 0.014909
611.921100 0.023429
612.149600 0.021191
612.378100 0.035498
612.606600 0.014944
612.835100 0.020131
613.063700 0.006889
613.292200 0.026050
613.520800 0.017102
613.749300 0.025648
613.977900 0.014378
614.206500 0.017314
614.435100 0.026133
614.663700 0.019535
614.892300 0.019882
615.120900 0.009982
615.349500 0.038507
615.578200 0.021644
615.806800 0.022120
616.035500 0.025106
616.264200 0.026707
616.492900 0.016353
616.721600 0.014641
616.950300 0.014793
617.179000 0.022120
617.407700 0.012909
617.636500 0.001958
617.865200 0.010455
618.094000 0.011904
618.322700 0.004359
618.551500 -0.000479
618.780300 0.002012
619.009100 0.011987
619.237900 0.014115
619.466700 0.022615
619.695600 0.017069
619.924400 0.012268
620.153300 0.029999
620.382100 0.007723
620.611000 0.011938
620.839900 -0.002731
621.068800 0.008516
621.297700 0.020605
621.526600 0.020605
621.755600 -0.004296
621.984500 0.022636
622.213500 0.008538
622.442400 0.007508
622.671400 0.009797
622.900400 0.003751
623.129400 0.023231
623.358400 0.011500
623.587400 0.012704
623.816400 -0.004173
624.045400 0.015964
624.274500 0.004566
624.503500 0.006412
624.732600 0.001711
624.961700 0.024480
625.190800 -0.000899
625.419900 -0.003173
625.649000 0.011404
625.878100 0.007679
626.107200 0.008094
626.336400 -0.012004
626.565500 0.027758
626.794700 -0.005553
627.023800 0.000897
627.253000 0.021396
627.482200 -0.002042
627.711400 0.007568
627.940600 0.017169
628.169800 -0.004696
628.399100 0.011854
628.628300 -0.009480
628.857600 0.012136
629.086800 -0.005813
629.316100 0.018512
629.545400 0.010420
629.774700 0.007723
630.004000 0.029057
630.233300 0.003254
630.462600 0.010733
630.692000 -0.002073
630.921300 0.024882
631.150700 0.019576
631.380100 0.019261
631.609400 0.012364
631.838800 0.034155
632.068200 0.019034
632.297600 0.011275
632.527100 -0.014118
632.756500 0.015946
632.985900 0.010694
633.215400 0.002980
633.444800 -0.020850
633.674300 0.010043
633.903800 0.029276
634.133300 -0.000927
634.362800 0.014813
634.592300 0.019364
634.821800 0.026168
635.051400 0.012077
635.280900 0.014020
635.510500 -0.032038
635.740000 -0.014979
635.969600 0.022758
636.199200 0.010308
636.428800 0.005042
636.658400 -0.005444
636.888000 0.011798
637.117700 0.028951
637.347300 0.021447
637.577000 0.023415
637.806600 0.044552
638.036300 0.030106
638.266000 -0.025742
638.495700 0.014784
638.725400 0.041369
638.955100 0.009637
639.184800 -0.018100
639.414500 0.009546
639.644300 -0.022732
639.874000 -0.014670
640.103800 0.005201
640.333600 -0.001302
640.563300 -0.008338
640.793100 -0.014544
641.022900 -0.011409
641.252800 0.002796
641.482600 -0.008843
641.712400 0.000765
641.942300 -0.005305
642.172100 -0.015266
642.402000 -0.000355
642.631900 -0.003788
642.861700 -0.003108
643.091600 0.000541
643.321600 0.013814
643.551500 0.023990
643.781400 -0.005373
644.011300 -0.004960
644.241300 0.031230
644.471200 -0.032082
644.701200 0.011083
644.931200 0.004919
645.161200 0.026235
645.391200 0.005084
645.621200 -0.024499
645.851200 -0.012493
646.081200 -0.010815
646.311300 -0.003386
646.541300 0.040315
646.771400 -0.024527
647.001500 0.023531
647.231600 -0.054134
647.461600 0.029223
647.691800 -0.008032
647.921900 -0.024287
648.152000 -0.004477
648.382100 0.021053
648.612300 0.006258
648.842400 0.014077
649.072600 0.044523
649.302800 0.010371
649.532900 0.034035
649.763100 0.004021
649.993300 -0.001468
650.223600 -0.001648
650.453800 0.007191
650.684000 -0.000660
650.914300 0.000623
651.144500 0.024353
651.374800 0.019605
651.605100 -0.019604
651.835400 -0.025048
652.065700 -0.021466
652.296000 0.004708
652.526300 -0.012724
652.756600 -0.043520
652.987000 -0.003651
653.217300 -0.003729
653.447700 0.006441
653.678000 0.002818
653.908400 -0.015761
654.138800 0.018060
654.369200 0.029307
654.599600 0.007162
654.830000 0.029696
655.060500 0.012469
655.290900 0.003711
655.521300 0.029401
655.751800 0.033712
655.982300 0.002910
656.212800 0.000974
656.443300 0.001458
656.673800 0.001232
656.904300 0.002850
657.134800 0.022744
657.365300 0.022445
657.595900 0.014166
657.826400 0.017787
658.057000 0.020705
658.287500 0.013715
658.518100 0.004345
658.748700 0.015149
658.979300 0.016784
659.209900 -0.009155
659.440600 -0.030356
659.671200 -0.046160
659.901800 -0.054018
660.132500 -0.044043
660.363200 -0.007529
660.593800 0.005472
660.824500 -0.041615
661.055200 0.010024
661.285900 0.001088
661.516600 -0.005165
661.747400 0.039446
661.978100 -0.029066
662.208800 0.062579
662.439600 0.028145
662.670400 0.023740
662.901100 0.043492
663.131900 0.034580
663.362700 0.012744
663.593500 -0.013874
663.824300 0.014867
664.055200 -0.001006
664.286000 0.004765
664.516800 0.007802
664.747700 0.051173
664.978600 0.021018
665.209400 0.005936
665.440300 0.039921
665.671200 0.051002
665.902100 0.034049
666.133000 0.003955
666.364000 0.001217
666.594900 -0.018217
666.825900 0.035268
667.056800 0.002740
667.287800 0.020992
667.518800 -0.011470
667.749700 -0.010161
667.980700 0.015501
668.211700 0.009651
668.442800 -0.001246
668.673800 0.005269
668.904800 -0.031108
669.135900 0.019589
669.366900 0.006235
669.598000 -0.040084
669.829100 0.009403
670.060200 -0.014140
670.291300 0.032649
670.522400 -0.004082
670.753500 0.006309
670.984600 0.000213
671.215700 0.013210
671.446900 0.027920
671.678100 -0.008984
671.909200 0.023262
672.140400 0.034928
672.371600 0.019113
672.602800 -0.010420
672.834000 0.000470
673.065200 -0.012891
673.296400 -0.005029
673.527700 0.015178
673.758900 0.012403
673.990200 0.016864
674.221400 0.023606
674.452700 0.022213
674.684000 0.005235
674.915300 0.044511
675.146600 0.000144
675.377900 -0.022682
675.609300 -0.003896
675.840600 0.007270
676.071900 0.012308
676.303300 -0.012579
676.534700 -0.024144
676.766100 0.009154
676.997400 0.030211
677.228800 0.002134
677.460200 0.008457
677.691700 0.016883
677.923100 0.020404
678.154500 -0.002230
678.386000 -0.011025
678.617400 0.015534
678.848900 0.012890
679.080400 0.008801
679.311900 -0.012480
679.543400 -0.039664
679.774900 -0.011179
680.006400 0.015808
680.237900 0.006594
680.469400 -0.000454
680.701000 0.049089
680.932500 0.020452
681.164100 -0.002174
681.395700 0.012321
681.627300 0.018288
681.858900 0.012677
682.090500 -0.012309
682.322100 -0.001485
682.553700 0.013939
682.785400 -0.003225
683.017000 -0.000056
683.248700 0.007230
683.480300 -0.012846
683.712000 -0.022143
683.943700 0.020108
684.175400 0.016892
684.407100 0.006151
684.638800 -0.022383
684.870500 0.009072
685.102300 0.004569
685.334000 0.016524
685.565800 0.027235
685.797500 0.011985
686.029300 -0.010224
686.261100 0.017385
686.492900 0.011092
686.724700 -0.001248
686.956500 -0.015677
687.188300 -0.005280
687.420200 0.025841
687.652000 0.006866
687.883800 -0.016705
688.115700 -0.017003
688.347600 0.008555
688.579500 -0.014639
688.811400 0.012813
689.043300 0.005435
689.275200 -0.014921
689.507100 -0.009583
689.739000 0.022128
689.971000 -0.016769
690.202900 -0.000720
690.434900 0.013449
690.666900 0.009957
690.898800 -0.011676
691.130800 -0.011192
691.362800 -0.000915
691.594800 0.010825
691.826900 0.013964
692.058900 0.004837
692.290900 0.020594
692.523000 0.014110
692.755000 0.017296
692.987100 0.011812
693.219200 0.017125
693.451300 0.006466
693.683400 -0.010425
693.915500 0.006756
694.147600 -0.004708
694.379700 0.009854
694.611900 -0.010206
694.844000 0.021701
695.076200 -0.007202
695.308300 0.025434
695.540500 0.020840
695.772700 -0.014086
696.004900 -0.007829
696.237100 -0.006544
696.469300 0.000537
696.701600 0.013339
696.933800 0.004751
697.166000 0.010111
697.398300 0.016448
697.630600 0.024577
697.862800 0.030625
698.095100 0.024280
698.327400 0.014367
698.559700 0.007061
698.792000 -0.013621
699.024300 0.006892
699.256700 0.002337
699.489000 0.016839
699.721400 0.015076
699.953700 -0.004580
700.186100 0.008892
700.418500 -0.008219
700.650900 -0.001742
700.883300 0.032890
701.115700 0.023607
701.348100 -0.000870
701.580600 -0.008018
701.813000 0.023097
702.045400 -0.008052
702.277900 0.047494
702.510400 0.010500
702.742900 -0.024695
702.975300 -0.003947
703.207800 0.038961
703.440300 0.004604
703.672900 0.034640
703.905400 -0.015885
704.137900 0.019656
704.370500 0.012213
704.603000 0.020971
704.835600 -0.002437
705.068200 -0.039833
705.300800 -0.007424
705.533400 -0.004445
705.766000 0.013574
705.998600 0.023957
706.231200 0.019076
706.463800 -0.000325
706.696500 0.020384
706.929100 -0.006168
707.161800 -0.011594
707.394500 0.023635
707.627200 -0.012138
707.859900 0.024512
708.092600 0.017243
708.325300 0.004316
708.558000 0.011115
708.790700 0.002616
709.023500 0.022104
709.256200 0.004053
709.489000 0.007642
709.721700 -0.011144
709.954500 -0.004763
710.187300 -0.031349
710.420100 0.009858
710.652900 -0.006489
710.885700 -0.007737
711.118600 -0.011542
711.351400 -0.018603
711.584200 0.002264
711.817100 -0.004167
712.050000 -0.007362
712.282800 -0.014706
712.515700 0.011593
712.748600 -0.021143
712.981500 -0.030740
713.214400 0.009046
713.447400 -0.012457
713.680300 -0.011693
713.913200 -0.029238
714.146200 -0.002068
714.379100 0.010445
714.612100 0.005459
714.845100 -0.007918
715.078100 -0.013151
715.311100 -0.010512
715.544100 -0.009152
715.777100 0.007446
716.010200 -0.015778
716.243200 -0.024284
716.476200 0.009470
716.709300 -0.006532
716.942400 -0.006325
717.175400 -0.003140
717.408500 -0.014457
717.641600 -0.019088
717.874700 -0.037640
718.107800 -0.009599
718.341000 0.025803
718.574100 0.020093
718.807200 -0.013453
719.040400 0.004630
719.273600 0.004630
719.506700 0.012657
719.739900 -0.015706
719.973100 -0.011490
720.206300 0.003244
720.439500 0.000455
720.672700 -0.022801
720.906000 -0.015532
721.139200 0.019064
721.372500 0.025003
721.605700 0.004814
721.839000 0.008258
722.072300 -0.018734
722.305500 -0.017994
722.538800 -0.012830
722.772100 0.011369
723.005500 -0.007608
723.238800 0.001452
723.472100 0.001616
723.705500 -0.008394
723.938800 -0.029434
724.172200 -0.014137
724.405600 0.006299
724.638900 0.027554
724.872300 0.008641
725.105700 0.008600
725.339100 0.020727
725.572600 0.012569
725.806000 -0.032708
726.039400 0.001556
726.272900 0.041854
726.506300 -0.033662
726.739800 0.032312
726.973300 0.000502
727.206800 -0.007278
727.440300 0.032087
727.673800 0.002863
727.907300 0.015129
728.140800 0.013664
728.374300 -0.022276
728.607900 -0.024042
728.841400 0.001722
729.075000 0.013891
729.308600 -0.004286
729.542100 -0.005264
729.775700 0.008968
730.009300 -0.016048
730.242900 -0.017759
730.476600 0.018257
730.710200 -0.013594
730.943800 0.016810
731.177500 0.023671
731.411100 0.019930
731.644800 0.015946
731.878500 -0.016752
732.112200 -0.006130
732.345800 0.034526
732.579500 0.018585
732.813300 0.009583
733.047000 0.021258
733.280700 -0.002188
733.514500 -0.021123
733.748200 0.002243
733.982000 0.027650
734.215700 0.014395
734.449500 0.005167
734.683300 0.013257
734.917100 0.015710
735.150900 0.003531
735.384700 0.006209
735.618500 0.006020
735.852400 0.026989
736.086200 0.018393
736.320100 -0.004930
736.553900 0.006011
736.787800 -0.000009
737.021700 -0.012038
737.255600 0.024414
737.489500 -0.014559
737.723400 -0.020233
737.957300 -0.006813
738.191200 -0.009871
738.425200 0.002601
738.659100 0.011599
738.893100 -0.014831
739.127100 0.007059
739.361000 0.008408
739.595000 0.010143
739.829000 -0.015289
740.063000 0.000212
740.297000 0.024701
740.531000 -0.034742
740.765100 -0.000429
740.999100 0.002365
741.233200 0.017620
741.467200 0.012007
741.701300 0.005972
741.935400 -0.012949
742.169500 -0.015888
742.403600 0.026732
742.637700 -0.003958
742.871800 -0.019154
743.105900 0.001038
743.340000 -0.007681
743.574200 0.003936
743.808300 -0.021085
744.042500 -0.026658
744.276700 -0.023057
744.510800 0.016269
744.745000 0.013123
744.979200 0.000098
745.213400 -0.022128
745.447700 -0.004464
745.681900 -0.009563
745.916100 0.012259
746.150400 -0.018136
746.384600 0.010236
746.618900 -0.041620
746.853200 -0.018748
747.087400 0.029647
747.321700 0.013095
747.556000 -0.013267
747.790300 0.019034
748.024700 -0.024441
748.259000 -0.020289
748.493300 0.030016
748.727700 -0.020117
748.962000 0.015982
749.196400 -0.003878
749.430800 -0.007605
749.665200 -0.017974
749.899500 0.001797
750.133900 -0.023432
750.368400 -0.006036
750.602800 -0.011335
750.837200 -0.005226
751.071700 -0.002870
751.306100 0.020405
751.540600 -0.025049
751.775000 0.033078
752.009500 0.012634
752.244000 -0.008686
752.478500 -0.006555
752.713000 0.005611
752.947500 -0.023788
753.182000 0.008710
753.416600 -0.003142
753.651100 0.011708
753.885600 -0.000834
754.120200 0.008255
754.354800 -0.016999
754.589400 0.013959
754.823900 0.007823
755.058500 0.005197
755.293100 -0.010680
755.527800 -0.003193
755.762400 0.001705
755.997000 -0.009710
756.231700 -0.001287
756.466300 0.006317
756.701000 0.015723
756.935600 -0.001538
757.170300 -0.004438
757.405000 0.026290
757.639700 0.011440
757.874400 0.034500
758.109100 0.029054
758.343800 0.011329
758.578600 0.001372
758.813300 0.022651
759.048100 0.003905
759.282800 -0.006390
759.517600 -0.002930
759.752400 0.013744
759.987200 -0.000955
760.222000 0.012520
760.456800 0.005238
760.691600 0.000489
760.926400 -0.000342
761.161300 0.001462
761.396100 0.015232
761.631000 0.005023
761.865800 0.022663
762.100700 0.001030
762.335600 0.005783
762.570500 0.005955
762.805400 0.011734
763.040300 0.015565
763.275200 -0.011600
763.510100 0.012102
763.745000 0.013768
763.980000 0.027752
764.214900 -0.020007
764.449900 -0.003802
764.684900 0.010206
764.919800 -0.002237
765.154800 0.004887
765.389800 -0.001530
765.624800 0.016785
765.859900 0.007160
766.094900 0.000164
766.329900 0.013757
766.565000 -0.003238
766.800000 -0.020998
767.035100 0.031440
767.270100 0.020822
767.505200 -0.004696
767.740300 -0.003565
767.975400 0.012331
768.210500 0.003165
768.445600 -0.007018
768.680800 -0.002282
768.915900 0.016314
769.151000 0.000727
769.386200 0.015344
769.621400 -0.015550
769.856500 0.027978
770.091700 0.005897
770.326900 -0.010054
770.562100 -0.003691
770.797300 -0.020842
771.032500 -0.016549
771.267700 -0.000588
771.503000 -0.025990
771.738200 0.017331
771.973500 -0.013353
772.208700 -0.013165
772.444000 0.000654
772.679300 -0.005842
772.914600 -0.006813
773.149900 -0.019347
773.385200 -0.034346
773.620500 0.002669
773.855800 -0.008271
774.091100 0.011467
774.326500 0.002769
774.561800 -0.000077
774.797200 0.033327
775.032600 0.057526
775.267900 -0.013485
775.503300 0.019638
775.738700 0.007650
775.974100 0.007264
776.209500 -0.008661
776.445000 0.008223
776.680400 0.034903
776.915800 -0.003737
777.151300 -0.001113
777.386800 0.003739
777.622200 0.017023
777.857700 -0.017307
778.093200 -0.017842
778.328700 -0.023707
778.564200 -0.009916
778.799700 0.024426
779.035200 0.025298
779.270700 0.003085
779.506300 0.016465
779.741800 -0.004665
779.977400 0.014100
780.213000 0.013602
780.448500 0.009936
780.684100 0.011075
780.919700 0.025044
781.155300 -0.007818
781.390900 0.028485
781.626500 0.010419
781.862200 0.021230
782.097800 0.021772
782.333500 0.011044
782.569100 -0.009993
782.804800 0.001398
783.040500 -0.020198
783.276100 -0.031327
783.511800 0.011119
783.747500 -0.025537
783.983200 -0.015516
784.219000 -0.014893
784.454700 -0.013849
784.690400 -0.010781
784.926200 0.003932
785.161900 0.013700
785.397700 -0.008075
785.633500 0.005200
785.869200 0.020108
786.105000 0.004848
786.340800 0.015351
786.576600 -0.009644
786.812400 -0.015208
787.048300 -0.003967
787.284100 -0.003626
787.519900 -0.006517
787.755800 0.026889
787.991700 -0.015555
788.227500 0.002909
788.463400 0.002360
788.699300 0.020094
788.935200 0.012984
789.171100 -0.005136
789.407000 0.014734
789.642900 0.025424
789.878900 0.051085
790.114800 -0.009227
790.350700 -0.011131
790.586700 0.010171
790.822700 0.030254
791.058600 -0.041518
791.294600 -0.002576
791.530600 -0.020272
791.766600 0.024637
792.002600 0.047707
792.238700 -0.006352
792.474700 0.018888
792.710700 0.000823
792.946800 -0.061680
793.182800 -0.013095
793.418900 0.030662
793.655000 0.024126
793.891000 0.016354
794.127100 0.017777
794.363200 0.016923
794.599300 0.016034
794.835500 0.020764
795.071600 0.044971
795.307700 0.018420
795.543900 0.019120
795.780000 -0.006558
796.016200 0.045279
796.252300 0.006857
796.488500 0.016102
796.724700 0.010254
796.960900 -0.011319
797.197100 0.020931
797.433300 -0.029101
797.669500 -0.011803
797.905800 0.014828
798.142000 0.001950
798.378300 -0.008573
798.614500 -0.031438
798.850800 0.013999
799.087100 0.018642
799.323300 0.018336
799.559600 -0.018499
799.795900 -0.002661
800.032200 0.023150
800.268600 -0.052666
800.504900 0.031155
800.741200 0.006457
800.977600 0.018105
801.213900 0.047917
801.450300 0.013280
801.686700 0.012778
801.923000 0.035787
802.159400 -0.016796
802.395800 -0.012017
802.632200 0.017170
802.868600 0.002705
803.105100 -0.026033
803.341500 -0.013818
803.577900 -0.017240
803.814400 0.024349
804.050800 -0.022129
804.287300 0.048902
804.523800 -0.031378
804.760300 0.004619
804.996800 -0.058346
805.233300 0.015855
805.469800 -0.013599
805.706300 0.007059
805.942800 0.011621
806.179400 -0.026275
806.415900 -0.004910
806.652500 -0.010967
806.889000 0.049789
807.125600 0.004735
807.362200 -0.011827
807.598800 0.052723
807.835400 0.019048
808.072000 -0.011383
808.308600 0.003060
808.545200 -0.035323
808.781800 -0.046448
809.018500 0.017500
809.255100 0.009436
809.491800 -0.041153
809.728400 -0.030194
809.965100 0.010280
810.201800 -0.002677
810.438500 -0.053222
810.675200 -0.028625
810.911900 0.018120
811.148600 0.003027
811.385300 0.028654
811.622100 0.016765
811.858800 -0.031926
812.095600 -0.008323
812.332300 0.040321
812.569100 -0.036018
812.805900 0.006868
813.042700 -0.011106
813.279500 0.019430
813.516300 -0.033675
813.753100 -0.025266
813.989900 -0.036914
814.226700 0.054410
814.463600 0.014224
814.700400 -0.035043
814.937300 0.015332
815.174200 0.000652
815.411000 -0.070979
815.647900 -0.050400
815.884800 0.020112
816.121700 0.009300
816.358600 -0.012198
816.595500 0.000707
816.832400 -0.017557
817.069400 -0.014962
817.306300 0.006340
817.543300 0.002636
817.780200 -0.071538
818.017200 0.007464
818.254200 0.025635
818.491200 -0.018372
818.728200 -0.001477
818.965200 0.007636
819.202200 0.000203
819.439200 0.017975
819.676200 -0.070321
819.913300 -0.007972
820.150300 -0.032348
820.387400 0.045950
820.624400 0.055613
820.861500 -0.015137
821.098600 0.017162
821.335700 0.090965
821.572700 0.023748
821.809900 -0.014719
822.047000 0.022087
822.284100 -0.023453
822.521200 0.008376
822.758400 -0.020164
822.995500 0.071653
823.232700 0.074202
823.469800 0.019279
823.707000 -0.073768
823.944200 0.010762
824.181400 -0.003468
824.418600 -0.007892
824.655800 0.040799
824.893000 0.007355
825.130200 -0.006697
825.367500 -0.022722
825.604700 0.010926
825.841900 -0.076897
826.079200 0.064208
826.316500 0.016494
826.553700 -0.026508
826.791000 0.053531
827.028300 0.101084
827.265600 -0.011115
827.502900 0.039394
827.740200 0.059028
827.977600 -0.015795
828.214900 0.037398
828.452200 0.010611
828.689600 -0.021863
828.927000 0.060891
829.164300 -0.080758
829.401700 -0.023453
829.639100 -0.040526
829.876500 -0.065805
830.113900 0.009627
830.351300 0.048494
830.588700 0.020992
830.826100 0.040301
831.063600 -0.068205
831.301000 0.066544
831.538500 -0.001151
831.775900 -0.033529
832.013400 -0.041734
832.250900 -0.039021
832.488400 0.102711
832.725900 0.020538
832.963400 0.008548
833.200900 0.008334
833.438400 -0.048390
833.675900 0.032858
833.913500 0.061939
834.151000 0.081562
834.388600 -0.009122
834.626100 -0.068218
834.863700 0.032732
835.101300 -0.052114
835.338900 -0.007586
835.576500 0.040016
835.814100 -0.047206
836.051700 -0.041933
836.289300 0.051119
836.526900 0.018906
836.764600 0.057265
837.002200 0.072357
837.239900 0.017720
837.477500 0.023885
837.715200 -0.114711
837.952900 0.017146
838.190600 0.060829
838.428300 -0.126195
838.666000 0.016048
838.903700 -0.094205
839.141400 0.004169
839.379100 -0.021946
839.616900 -0.072820
839.854600 0.042797
840.092400 -0.056926
840.330200 0.050914
840.567900 0.057433
840.805700 -0.031479
841.043500 0.075481
841.281300 0.052030
841.519100 -0.074893
841.756900 -0.012161
841.994700 -0.082790
842.232600 0.136256
842.470400 -0.000775
842.708200 -0.137568
842.946100 -0.012220
843.184000 -0.063894
843.421800 -0.075187
843.659700 0.041592
843.897600 -0.065932
844.135500 0.069934
844.373400 -0.069733
844.611300 0.083005
844.849200 0.013182
845.087200 -0.057116
845.325100 -0.054294
845.563100 0.084301
845.801000 -0.060521
846.039000 0.098350
846.277000 -0.069003
846.514900 -0.043363
846.752900 -0.251780
846.990900 -0.103480
847.228900 -0.068682
847.466900 -0.007250
847.705000 0.115211
847.943000 -0.062428
848.181000 0.025317
848.419100 0.043978
848.657100 0.047488
848.895200 -0.045314
849.133300 0.186254
849.371300 0.049640
849.609400 -0.030348
849.847500 -0.026560
850.085600 0.148322
850.323700 0.033109
850.561900 0.091039
850.800000 0.025995
851.038100 -0.121321
851.276300 -0.109778
851.514400 0.030503
851.752600 0.003558
851.990800 0.082276
852.228900 -0.101189
852.467100 0.039983
852.705300 -0.038188
852.943500 0.063109
853.181700 0.007532
853.420000 -0.053847
853.658200 -0.003128
853.896400 0.058449
854.134700 -0.035467
854.372900 0.017304
854.611200 0.026530
854.849500 0.043331
855.087700 0.037028
855.326000 0.099750
855.564300 0.008336
855.802600 0.048638
856.040900 0.036697
856.279200 0.035553
856.517600 0.034937
856.755900 -0.025419
856.994200 -0.080837
857.232600 -0.033541
857.471000 -0.041363
857.709300 0.002422
857.947700 -0.023110
858.186100 -0.007388
858.424500 -0.054487
858.662900 -0.004720
858.901300 0.010411
859.139700 0.010243
859.378100 -0.018776
859.616600 -0.028627
859.855000 -0.075218
860.093500 -0.038813
860.331900 0.039835
860.570400 -0.011716
860.808900 -0.009123
861.047300 0.001829
861.285800 0.002416
861.524300 0.077365
861.762800 0.011752
862.001300 -0.015869
862.239900 0.058049
862.478400 0.033361
862.716900 -0.044109
862.955500 -0.027358
863.194000 -0.018585
863.432600 0.128784
863.671200 0.071974
863.909800 -0.029429
864.148300 -0.070987
864.386900 -0.012867
864.625500 0.033441
864.864200 -0.003202
865.102800 -0.150159
865.341400 -0.016192
865.580000 -0.081649
865.818700 -0.025124
866.057300 -0.026867
866.296000 -0.121582
866.534700 -0.008729
866.773300 0.017389
867.012000 0.005936
867.250700 0.003140
867.489400 -0.022045
867.728100 0.040298
867.966900 0.150736
868.205600 -0.027392
868.444300 0.110791
868.683100 0.085848
868.921800 -0.046945
869.160600 -0.042366
869.399300 -0.000175
869.638100 -0.088870
869.876900 -0.066296
870.115700 -0.028614
870.354500 0.055494
870.593300 -0.143431
870.832100 0.038744
871.070900 -0.065211
871.309700 -0.013405
871.548600 0.114493
871.787400 -0.034874
872.026300 -0.068681
872.265100 0.023990
872.504000 -0.039613
872.742900 0.033819
872.981800 -0.022870
873.220700 0.038894
873.459600 -0.001576
873.698500 0.012419
873.937400 -0.028728
874.176300 -0.001877
874.415300 0.010443
874.654200 -0.051070
874.893200 -0.095453
875.132100 -0.030228
875.371100 -0.050107
875.610100 -0.009862
875.849100 0.124895
876.088000 0.022892
876.327000 0.032483
876.566100 0.044282
876.805100 0.001479
877.044100 -0.105845
877.283100 -0.105762
877.522200 -0.086447
877.761200 -0.044753
878.000300 -0.010877
878.239300 0.023186
878.478400 0.025694
878.717500 -0.039739
878.956600 0.064043
879.195700 0.107068
879.434800 -0.042286
879.673900 0.005757
879.913000 -0.000111
880.152100 0.026685
880.391300 -0.009015
880.630400 0.003882
880.869600 -0.042389
881.108700 0.055331
881.347900 0.051781
881.587100 -0.064746
881.826200 0.001708
882.065400 0.028803
882.304600 -0.072339
882.543800 0.066724
882.783100 0.071229
883.022300 -0.032047
883.261500 -0.038573
883.500700 -0.017054
883.740000 -0.103773
883.979200 -0.044748
884.218500 0.010216
884.457800 -0.052662
884.697100 -0.008928
884.936300 0.128877
885.175600 0.010749
885.414900 0.112841
885.654200 -0.016208
885.893600 0.008549
886.132900 0.120576
886.372200 -0.042111
886.611600 -0.115460
886.850900 0.034712
887.090300 -0.040665
887.329600 0.015143
887.569000 -0.014138
887.808400 0.018811
888.047800 -0.050098
888.287200 -0.102280
888.526600 -0.085269
888.766000 -0.056312
889.005400 -0.016943
889.244800 0.011153
889.484300 -0.021780
889.723700 0.096146
889.963200 0.076086
890.202600 0.065123
890.442100 -0.010736
890.681600 0.006722
890.921100 0.047762
891.160600 0.029925
891.400100 0.081532
891.639600 -0.014954
891.879100 0.036608
892.118600 0.143336
892.358100 -0.078033
892.597700 0.089003
892.837200 0.032942
893.076800 -0.023814
893.316300 0.099098
893.555900 0.061444
893.795500 -0.041712
894.035100 -0.008145
894.274700 -0.064333
894.514300 -0.077178
894.753900 -0.080125
894.993500 -0.040353
895.233100 -0.094753
895.472700 0.099863
895.712400 0.015076
895.952000 -0.012156
896.191700 -0.144857
896.431400 0.062167
896.671000 0.023803
896.910700 0.101170
897.150400 -0.069614
897.390100 -0.095571
897.629800 0.018897
897.869500 0.004120
898.109200 -0.072071
898.348900 -0.016943
898.588700 -0.059845
898.828400 0.165193
899.068200 0.041504
899.307900 0.080085
899.547700 0.117066
899.787500 0.037457
900.027200 -0.093888
900.267000 0.114454
900.506800 0.253354
900.746600 -0.050064
900.986400 -0.043971
901.226300 0.031611
901.466100 0.025234
901.705900 0.090780
901.945800 0.035589
902.185600 -0.027529
902.425500 -0.202160
902.665400 0.032347
902.905200 -0.069822
903.145100 0.000940
903.385000 -0.032965
903.624900 0.017836
903.864800 -0.115188
904.104700 -0.112672
904.344600 -0.086327
904.584600 -0.116207
904.824500 0.051177
905.064400 0.031798
905.304400 0.031738
905.544400 -0.049123
905.784300 0.092754
906.024300 0.052202
906.264300 -0.095093
906.504300 0.017758
906.744300 0.051591
906.984300 0.054629
907.224300 -0.129027
907.464300 -0.078462
907.704300 -0.000099
907.944400 -0.143947
908.184400 -0.134398
908.424500 0.001110
908.664500 -0.027122
908.904600 -0.064466
909.144700 -0.030818
909.384700 -0.023254
909.624800 0.000000
909.864900 0.088667
910.105000 0.019192
910.345200 -0.138943
910.585300 0.043446
910.825400 -0.030550
911.065500 0.025275
911.305700 -0.132000
911.545800 -0.024243
911.786000 -0.092049
912.026200 -0.107637
912.266300 0.058725
912.506500 -0.044810
912.746700 0.036630
912.986900 0.021705
913.227100 -0.150992
913.467300 -0.076287
913.707500 -0.100012
913.947800 0.192484
914.188000 0.103336
914.428300 -0.023389
914.668500 0.082094
914.908800 0.119171
915.149000 -0.029072
915.389300 0.069752
915.629600 0.012521
915.869900 -0.068116
916.110200 -0.239578
916.350500 0.053911
916.590800 -0.039058
916.831100 -0.107435
917.071400 -0.003112
917.311800 -0.045624
917.552100 0.238597
917.792500 -0.067543
918.032800 -0.071626
918.273200 0.208766
918.513600 0.190362
918.753900 0.066627
918.994300 0.011437
919.234700 -0.025161
919.475100 0.132053
919.715500 0.047403
919.956000 0.045473
920.196400 -0.099123
920.436800 -0.122471
920.677300 -0.084008
920.917700 0.307240
921.158200 0.003731
921.398600 -0.014622
921.639100 0.156421
921.879600 -0.133342
922.120100 -0.034327
922.360600 0.015240
922.601100 -0.095168
922.841600 -0.121602
923.082100 0.112422
923.322600 -0.192936
923.563100 -0.037543
923.803700 0.285378
924.044200 -0.147510
924.284800 0.041592
924.525400 -0.144479
924.765900 0.127016
925.006500 -0.015413
925.247100 0.197758
925.487700 0.044341
925.728300 0.265356
925.968900 0.010351
926.209500 -0.227989
926.450100 0.125246
926.690800 0.065164
926.931400 0.072803
927.172000 0.093920
927.412700 0.132424
927.653300 -0.002713
927.894000 -0.012381
928.134700 0.049749
928.375400 -0.042273
928.616100 0.324227
928.856800 -0.119555
929.097500 0.409547
929.338200 -0.130809
929.578900 0.077125
929.819600 -0.003396
930.060400 -0.094460
930.301100 0.011838
930.541900 -0.140600
930.782600 -0.043657
931.023400 0.172969
931.264200 0.123791
931.504900 0.092379
931.745700 0.015639
931.986500 -0.055827
932.227300 -0.028835
932.468100 0.033527
932.708900 0.305887
932.949800 0.406477
933.190600 0.049162
933.431400 0.192431
933.672300 -0.164734
933.913100 -0.119897
934.154000 0.031531
934.394900 -0.234098
934.635800 0.029785
934.876600 0.078630
935.117500 -0.221680
935.358400 -0.053422
935.599300 0.466113
935.840300 -0.126366
936.081200 -0.118028
936.322100 -0.144157
936.563000 0.238592
936.804000 0.260594
937.044900 -0.059566
937.285900 0.098643
937.526900 0.297569
937.767800 0.197755
938.008800 -0.086074
938.249800 0.429192
938.490800 -0.017533
938.731800 -0.096910
938.972800 0.184401
939.213800 0.204918
939.454900 -0.177432
939.695900 0.098938
939.936900 -0.125935
940.178000 0.045616
940.419000 -0.421347
940.660100 0.038866
940.901200 -0.051197
941.142200 -0.368355
941.383300 -0.074740
941.624400 -0.105390
941.865500 -0.185673
942.106600 -0.026000
942.347700 -0.281259
942.588900 0.571612
942.830000 0.446290
943.071100 -0.220366
943.312300 0.141803
943.553400 0.009908
943.794600 0.156159
944.035700 -0.154600
944.276900 -0.129181
944.518100 0.798067
944.759300 0.038880
945.000500 -0.464443
945.241700 0.104504
945.482900 0.015091
945.724100 0.304995
945.965300 0.303330
946.206600 -0.111396
946.447800 0.173472
946.689100 -0.025348
946.930300 -0.516495
947.171600 0.060037
947.412800 -0.002626
947.654100 0.266744
947.895400 0.751400
948.136700 0.052730
948.378000 -0.365094
948.619300 0.010436
948.860600 0.290318
949.101900 -0.206432
949.343300 0.009228
949.584600 -0.059880
949.825900 0.050215
950.067300 0.404897
950.308600 0.136413
950.550000 -0.210120
950.791400 -0.255084
951.032700 -0.051023
951.274100 -0.090851
951.515500 -0.069870
951.756900 0.176989
951.998300 -0.131558
952.239800 -0.151022
952.481200 -0.241730
952.722600 -0.512095
952.964000 0.053609
953.205500 0.185967
953.446900 -0.126439
953.688400 -0.110055
953.929900 0.260682
954.171300 -1.371537
954.412800 -0.176508
954.654300 0.606206
954.895800 -0.269332
955.137300 -0.460924
955.378800 0.018513
955.620300 -0.395286
955.861800 -0.187963
956.103400 0.292851
956.344900 0.006180
956.586500 0.039159
956.828000 0.682428
957.069600 -0.061651
957.311100 -0.380454
957.552700 0.254106
957.794300 0.499909
958.035900 -0.508588
958.277500 -0.051224
958.519100 0.104617
958.760700 -0.075363
959.002300 0.012321
959.243900 -0.177434
959.485600 -0.344134
959.727200 -0.006117
959.968800 -0.334056
960.210500 -0.483255
960.452200 -0.327175
960.693800 -0.248830
960.935500 -2.965202
961.177200 0.125907
961.418900 -0.532896
961.660600 -0.183509
961.902300 0.032252
962.144000 -0.412983
962.385700 -0.475950
962.627400 0.085488
962.869200 0.121636
963.110900 -0.243591
963.352700 0.242411
963.594400 0.086651
963.836200 0.086812
964.077900 -0.269231
964.319700 0.037930
964.561500 0.655158
964.803300 0.174048
965.045100 -0.209375
965.286900 -0.271267
965.528700 0.355296
965.770500 -0.219829
966.012300 -0.508890
966.254200 -0.337032
966.496000 -0.249052
966.737900 -0.024644
966.979700 -0.091247
967.221600 -0.160533
967.463400 0.177075
967.705300 1.152288
967.947200 2.859739
968.189100 2.510545
968.431000 -0.182010
968.672900 -0.100465
968.914800 -0.118716
969.156700 2.745075
969.398700 -0.468212
969.640600 -1.041393
969.882500 -0.275124
970.124500 2.575188
970.366400 -0.043095
970.608400 -0.078919
970.850400 2.710117
971.092300 0.428023
971.334300 -0.124606
971.576300 -0.610725
971.818300 0.474294
972.060300 1.858838
972.302300 -0.030485
972.544300 -0.397315
972.786400 0.456361
973.028400 0.454777
973.270400 0.305368
973.512500 0.217322
973.754500 0.014162
973.996600 0.259957
974.238700 -0.119781
974.480700 0.423946
974.722800 0.678674
974.964900 -0.125239
975.207000 0.144597
975.449100 2.338456
975.691200 -0.230495
975.933300 0.191886
976.175500 -3.226084
976.417600 3.051153
976.659700 -0.308855
976.901900 0.528842
977.144000 0.030900
977.386200 -0.120029
977.628300 3.352761
977.870500 0.038534
978.112700 -0.384966
978.354900 1.012546
978.597100 -0.296647
978.839300 0.106111
979.081500 -0.132205
979.323700 -2.574031
979.565900 0.900273
979.808200 3.265290
980.050400 0.188119
980.292600 -0.348190
980.534900 -0.234645
980.777100 -0.083337
981.019400 -0.439472
981.261700 -0.030346
981.504000 -0.108236
981.746200 -1.391691
981.988500 -0.223530
982.230800 1.042073
982.473100 0.878700
982.715500 0.147234
982.957800 -0.437449
983.200100 -0.080438
983.442400 -0.290798
983.684800 2.799341
983.927100 -0.432831
984.169500 2.985426
984.411800 -0.318084
984.654200 -0.487060
984.896600 0.508754
985.139000 1.230449
985.381400 -0.143558
985.623800 3.218010
985.866200 3.062958
986.108600 -2.877947
986.351000 0.188447
986.593400 0.327441
986.835800 -0.245221
987.078300 -0.356078
987.320700 -0.412245
987.563200 -0.082485
987.805600 -0.746694
988.048100 3.189209
988.290600 -0.310354
988.533100 -2.852480
988.775600 0.459320
989.018000 0.397607
989.260500 3.086360
989.503100 -3.247482
989.745600 -1.228910
989.988100 -3.376577
990.230600 0.132403
990.473200 0.045646
990.715700 0.505630
990.958200 -0.479714
991.200800 -0.537094
991.443400 0.000000
991.685900 -0.302298
991.928500 -1.763428
992.171100 -1.123806
992.413700 0.604668
992.656300 0.393770
992.898900 2.866287
993.141500 -0.043431
993.384100 -0.064401
993.626700 -0.028116
993.869400 -0.233895
994.112000 -0.386109
994.354700 0.382056
994.597300 -0.237446
994.840000 -2.901458
995.082600 -0.464969
995.325300 2.269513
995.568000 -0.161700
995.810700 -0.774354
996.053400 -0.295380
996.296100 0.044181
996.538800 0.960184
996.781500 0.015805
997.024200 -0.790260
997.267000 -0.086256
997.509700 0.486836
997.752400 2.768638
997.995200 0.477121
998.237900 -0.211185
998.480700 -0.346368
998.723500 -2.852480
998.966200 -0.253347
999.209000 0.000000
999.451800 1.435689
999.694600 0.363903
999.937400 -0.880044
1000.180200 2.913284
1000.423000 0.088988
1000.665900 -0.318136
1000.908700 -0.642023
1001.151500 -0.476307
1001.394400 2.745075
1001.637200 3.078457
1001.880100 -1.577875
1002.123000 -0.049756
1002.365800 -0.198077
1002.608700 -0.924234
1002.851600 0.145386
1003.094500 -0.087700
1003.337400 -0.176968
1003.580300 -2.214844
1003.823200 -0.871932
1004.066100 -0.377291
1004.309100 2.719331
1004.552000 0.290930
1004.794900 0.079675
1005.037900 0.205606
1005.280800 -0.349156
1005.523800 -0.025960
1005.766700 2.783904
1006.009700 -0.200207
1006.252700 -2.839478
1006.495700 0.045016
1006.738700 -2.521138
1006.981700 -0.236642
1007.224700 -0.028029
1007.467700 0.440398
1007.710700 2.610660
1007.953800 0.572097
1008.196800 0.584108
1008.439800 -0.072295
1008.682900 2.691965
1008.925900 -0.155006
1009.169000 2.884229
1009.412100 -3.236789
1009.655100 -0.589095
1009.898200 -0.154462
1010.141300 -0.829719
1010.384400 -0.136074
1010.627500 -0.091246
1010.870600 0.252491
1011.113700 0.386522
1011.356800 -0.442487
1011.600000 1.591065
1011.843100 0.274461
1012.086300 -2.641474
1012.329400 0.042307
1012.572600 -2.661813
1012.815700 -0.150595
1013.058900 -3.038223
1013.302100 3.003891
1013.545200 0.498548
1013.788400 -0.485059
1014.031600 0.000000
1014.274800 0.612784
1014.518000 0.541831
1014.761300 -0.043095
1015.004500 -2.356026
1015.247700 0.157328
1015.490900 0.000000
1015.734200 2.035680
1015.977400 -0.524723
1016.220700 -3.348694
1016.464000 0.423337
1016.707200 -0.621913
1016.950500 -0.447677
1017.193800 -0.545981
1017.437100 -0.552652
1017.680400 0.492666
1017.923700 -0.102566
1018.167000 0.330266
1018.410300 0.643453
1018.653600 0.519362
1018.896900 -0.008187
1019.140300 -0.032763
1019.383600 -0.261004
1019.627000 -0.103762
1019.870300 2.465383
1020.113700 0.137059
1020.357100 -0.066286
1020.600400 -0.403980
1020.843800 0.086798
1021.087200 3.287130
1021.330600 0.000000
1021.574000 -0.007680
1021.817400 0.000000
1022.060800 -2.767898
1022.304200 0.000000
1022.547700 2.902003
1022.791100 -0.319079
1023.034500 -0.454728
