# Wavelength	Absorbance
197.780200 2.878522
197.984200 2.907949
198.188200 0.113768
198.392200 0.497454
198.596300 -0.098720
198.800300 2.318063
199.004400 0.143308
199.208500 -0.223618
199.412600 -0.412789
199.616800 2.768638
199.820900 -0.380954
200.025100 0.543493
200.229200 2.463893
200.433400 2.309630
200.637600 2.745075
200.841800 2.902003
201.046100 3.008600
201.250300 3.142702
201.454600 -0.077961
201.658900 3.051153
201.863100 2.994757
202.067400 2.760422
202.271800 0.003867
202.476100 2.896526
202.680500 -0.284229
202.884800 2.980458
203.089200 0.175490
203.293600 2.745075
203.498000 -0.076611
203.702400 -0.496687
203.906900 1.959041
204.111300 0.000000
204.315800 0.249787
204.520300 3.062958
204.724800 -0.231833
204.929300 2.396199
205.133800 0.367045
205.338400 2.820201
205.543000 0.191431
205.747500 2.682145
205.952100 0.313124
206.156700 0.044734
206.361400 0.000000
206.566000 2.187521
206.770600 0.377214
206.975300 -0.266635
207.180000 0.845098
207.384700 0.467137
207.589400 -2.759668
207.794100 2.480007
207.998900 2.622214
208.203600 3.152288
208.408400 0.111673
208.613200 2.820201
208.818000 -0.309957
209.022800 -0.237273
209.227600 0.234741
209.432500 2.907949
209.637300 2.752816
209.842200 -1.008946
210.047100 2.798651
210.252000 2.053078
210.456900 0.395278
210.661800 0.295710
210.866800 1.265979
211.071800 1.689514
211.276700 1.226707
211.481700 2.736397
211.686700 -0.557033
211.891800 1.781037
212.096800 0.337129
212.301800 2.890421
212.506900 0.044836
212.712000 0.518514
212.917100 0.482832
213.122200 0.305186
213.327300 0.349319
213.532500 0.000000
213.737600 0.424325
213.942800 -0.507084
214.148000 0.000000
214.353200 -1.954243
214.558400 -0.148319
214.763600 3.265290
214.968900 0.711835
215.174100 0.144016
215.379400 -2.585461
215.584700 2.846955
215.790000 3.021603
215.995300 0.443625
216.200700 0.046512
216.406000 -0.148763
216.611400 2.587711
216.816800 2.833784
217.022200 2.621176
217.227600 0.796325
217.433000 -0.392860
217.638400 3.047275
217.843900 -0.104797
218.049400 0.000000
218.254800 0.324716
218.460300 3.008600
218.665900 3.186674
218.871400 0.562419
219.076900 0.655885
219.282500 0.010581
219.488100 0.806726
219.693600 2.783904
219.899200 0.732347
220.104900 3.055378
220.310500 -0.725299
220.516100 0.000000
220.721800 0.066655
220.927500 3.071145
221.133200 2.902003
221.338900 2.902003
221.544600 2.846955
221.750300 0.552111
221.956100 -0.197076
222.161800 2.338456
222.367600 2.913284
222.573400 2.643453
222.779200 0.000000
222.985000 0.000000
223.190900 -0.227568
223.396700 2.621176
223.602600 2.632457
223.808500 2.736397
224.014400 -0.375215
224.220300 -0.146919
224.426200 2.719331
224.632200 -0.191013
224.838100 2.890421
225.044100 2.653213
225.250100 -0.296109
225.456100 0.092111
225.662100 -0.418309
225.868100 2.127105
226.074200 2.632457
226.280200 0.000000
226.486300 -0.507921
226.692400 -1.681241
226.898500 3.101403
227.104600 -0.955710
227.310700 -0.006661
227.516900 2.833784
227.723000 2.089905
227.929200 3.252853
228.135400 0.348089
228.341600 2.622214
228.547800 3.108227
228.754100 -0.141927
228.960300 2.245513
229.166600 -2.561101
229.372900 0.460790
229.579100 0.269747
229.785500 2.791691
229.991800 -2.073456
230.198100 0.636822
230.404500 -1.086978
230.610800 3.003891
230.817200 0.000000
231.023600 1.051572
231.230000 2.683047
231.436400 0.047801
231.642900 2.718502
231.849300 2.791691
232.055800 0.593627
232.262300 0.801556
232.468800 1.959041
232.675300 2.701568
232.881800 -0.233264
233.088400 -0.359412
233.294900 2.550228
233.501500 -0.304823
233.708100 -1.838849
233.914700 -0.297211
234.121300 -3.164947
234.327900 0.442247
234.534600 0.636822
234.741300 3.097604
234.947900 0.150936
235.154600 0.797673
235.361300 3.122544
235.568000 0.103461
235.774800 2.662758
235.981500 2.562293
236.188300 -2.652246
236.395100 0.019562
236.601800 0.000000
236.808700 2.960946
237.015500 -0.190867
237.222300 0.268237
237.429200 3.265290
237.636000 1.361728
237.842900 1.851258
238.049800 -0.132212
238.256700 -0.336682
238.463600 0.354063
238.670600 0.261542
238.877500 0.172072
239.084500 -2.478566
239.291500 0.107747
239.498500 2.245513
239.705500 -0.047629
239.912500 1.845098
240.119500 -1.053314
240.326600 2.190332
240.533700 -3.025715
240.740700 0.782327
240.947800 0.263612
241.154900 0.212848
241.362100 3.108227
241.569200 2.632457
241.776400 0.814439
241.983500 0.829661
242.190700 3.206826
242.397900 -3.212454
242.605100 -0.412546
242.812400 2.587711
243.019600 0.312874
243.226900 -0.229901
243.434100 2.913284
243.641400 2.736397
243.848700 -0.045968
244.056000 -2.883661
244.263400 2.653213
244.470700 1.667812
244.678100 3.082426
244.885400 0.201959
245.092800 -0.093101
245.300200 -0.149921
245.507600 1.915034
245.715100 3.034628
245.922500 0.518269
246.130000 1.230449
246.337500 3.183555
246.544900 2.396199
246.752400 0.392512
246.960000 3.165244
247.167500 0.424385
247.375000 -1.414973
247.582600 0.353618
247.790200 -0.395451
247.997800 0.735681
248.205400 1.847952
248.413000 0.827416
248.620600 0.606967
248.828300 0.069089
249.035900 3.030600
249.243600 0.288271
249.451300 3.282396
249.659000 0.346230
249.866700 0.133975
250.074500 0.640881
250.282200 0.383989
250.490000 3.021603
250.697800 1.008106
250.905600 -0.594809
251.113400 0.451363
251.321200 -0.330674
251.529000 2.008600
251.736900 0.270125
251.944700 3.186674
252.152600 0.263874
252.360500 2.710117
252.568400 -0.220904
252.776300 0.559091
252.984300 -0.287487
253.192200 -0.140055
253.400200 0.303559
253.608200 -0.246454
253.816200 3.282396
254.024200 1.457765
254.232200 2.414973
254.440200 0.000000
254.648300 2.769377
254.856400 0.747325
255.064400 2.775974
255.272500 0.030533
255.480600 -0.237792
255.688800 0.000000
255.896900 0.909621
256.105100 3.284882
256.313200 0.418363
256.521400 0.118099
256.729600 3.025715
256.937800 3.171434
257.146000 2.902003
257.354300 0.000000
257.562500 0.357783
257.770800 -1.838849
257.979100 0.287935
258.187400 2.833784
258.395700 0.474259
258.604000 3.034628
258.812400 2.919078
259.020700 3.026125
259.229100 -0.052046
259.437500 0.216223
259.645900 0.181349
259.854300 2.878522
260.062700 0.617625
260.271100 2.621176
260.479600 3.097604
260.688100 0.054437
260.896500 0.334299
261.105000 -0.870566
261.313500 -0.358827
261.522100 3.142702
261.730600 -0.282953
261.939200 2.701568
262.147700 -0.027139
262.356300 2.745075
262.564900 -0.115688
262.773500 0.116423
262.982200 -0.081741
263.190800 -2.672098
263.399500 3.206826
263.608100 3.039017
263.816800 0.008913
264.025500 2.396199
264.234200 -0.218214
264.442900 2.053078
264.651700 0.022788
264.860400 -0.244654
265.069200 0.155730
265.278000 2.990339
265.486800 0.232381
265.695600 2.450249
265.904400 0.000487
266.113300 -0.072215
266.322100 3.063333
266.531000 -0.432261
266.739900 0.455617
266.948800 3.125806
267.157700 -0.065569
267.366600 0.423935
267.575500 2.799341
267.784500 -0.333433
267.993500 0.949434
268.202400 2.970812
268.411400 0.071238
268.620500 2.761176
268.829500 -0.153445
269.038500 2.123852
269.247600 3.078819
269.456600 0.054358
269.665700 2.965672
269.874800 2.907411
270.083900 3.255273
270.293100 0.000000
270.502200 0.054625
270.711400 -0.732033
270.920500 2.833784
271.129700 0.399966
271.338900 3.115611
271.548100 -0.179608
271.757300 0.398751
271.966600 2.890421
272.175800 3.277609
272.385100 3.132580
272.594400 2.970812
272.803700 3.021603
273.013000 -0.096082
273.222300 2.994757
273.431600 0.175350
273.641000 3.209783
273.850400 -0.457096
274.059700 2.945961
274.269100 3.209515
274.478500 0.503693
274.688000 0.140979
274.897400 2.866287
275.106900 -1.152445
275.316300 3.055378
275.525800 -0.078747
275.735300 -3.212454
275.944800 0.274590
276.154300 0.328304
276.363900 3.012837
276.573400 2.840106
276.783000 0.094099
276.992600 2.846955
277.202200 0.030242
277.411800 2.587711
277.621400 -0.575871
277.831000 1.073272
278.040700 0.293875
278.250300 0.865959
278.460000 2.935507
278.669700 2.980458
278.879400 -0.865884
279.089100 2.691965
279.298900 2.929930
279.508600 0.142054
279.718400 1.591528
279.928100 0.000000
280.137900 0.225479
280.347700 -0.226681
280.557600 -0.289230
280.767400 3.039017
280.977200 0.751582
281.187100 -2.819544
281.397000 3.089905
281.606900 0.000000
281.816800 0.201923
282.026700 2.357935
282.236600 2.935003
282.446600 2.924279
282.656500 -2.859138
282.866500 0.230589
283.076500 -0.388271
283.286500 3.115278
283.496500 0.197453
283.706500 -0.032607
283.916600 2.866287
284.126600 0.845098
284.336700 0.631688
284.546800 2.587711
284.756900 0.118304
284.967000 2.896526
285.177100 0.237468
285.387300 -3.158664
285.597400 1.335792
285.807600 2.127105
286.017800 0.488745
286.228000 0.000000
286.438200 0.128858
286.648400 -0.029830
286.858700 3.265290
287.068900 2.760422
287.279200 0.238429
287.489500 0.174424
287.699800 0.275304
287.910100 0.012650
288.120400 -0.181639
288.330800 2.220108
288.541100 0.285883
288.751500 -0.666177
288.961900 -0.311900
289.172300 0.000000
289.382700 0.215678
289.593100 -0.293542
289.803500 -2.918555
290.014000 2.980458
290.224500 0.212848
290.434900 0.000000
290.645400 0.198443
290.855900 -0.345918
291.066500 0.185657
291.277000 0.053211
291.487500 2.768638
291.698100 0.321480
291.908700 -0.481087
292.119300 0.368103
292.329900 0.752934
292.540500 2.728354
292.751100 -0.133737
292.961800 0.000000
293.172400 0.154401
293.383100 -3.111599
293.593800 0.219511
293.804500 2.495544
294.015200 2.980458
294.226000 0.000000
294.436700 -0.513048
294.647500 1.451314
294.858200 -0.015089
295.069000 3.055378
295.279800 2.736397
295.490600 0.000000
295.701500 0.498083
295.912300 0.223647
296.123200 0.267724
296.334000 2.719331
296.544900 0.497265
296.755800 0.685598
296.966700 -0.046398
297.177700 2.945961
297.388600 0.349542
297.599500 -0.614148
297.810500 -0.203988
298.021500 3.149219
298.232500 1.740666
298.443500 -1.239223
298.654500 0.669681
298.865600 0.306263
299.076600 2.622214
299.287700 0.000000
299.498800 3.201124
299.709900 2.902003
299.921000 0.900064
300.132100 3.038620
300.343200 3.270446
300.554400 2.769377
300.765500 -0.126305
300.976700 0.000000
301.187900 0.377760
301.399100 0.628890
301.610300 0.032110
301.821500 3.364739
302.032800 3.104487
302.244100 3.017451
302.455300 3.097604
302.666600 0.391236
302.877900 0.849765
303.089200 0.117386
303.300600 0.404282
303.511900 2.970812
303.723300 0.589826
303.934600 0.013222
304.146000 -2.252159
304.357400 2.432969
304.568800 2.846955
304.780300 3.192289
304.991700 -0.133937
305.203100 0.317599
305.414600 0.471655
305.626100 2.294466
305.837600 0.354787
306.049100 2.775974
306.260600 3.051153
306.472200 2.245513
306.683700 -0.255163
306.895300 0.390496
307.106900 0.623198
307.318400 3.034628
307.530100 3.165244
307.741700 -0.123239
307.953300 3.332236
308.165000 0.000000
308.376600 3.265290
308.588300 3.242293
308.800000 1.352986
309.011700 3.215109
309.223400 3.125806
309.435100 2.450249
309.646900 0.168008
309.858600 3.054996
310.070400 0.139150
310.282200 1.447158
310.494000 0.368575
310.705800 3.168203
310.917600 0.272029
311.129500 0.392948
311.341300 3.296446
311.553200 0.405166
311.765100 0.379581
311.977000 3.142702
312.188900 -0.211709
312.400800 3.030600
312.612700 0.534271
312.824700 3.292034
313.036600 0.091894
313.248600 3.332034
313.460600 0.019562
313.672600 3.275081
313.884600 0.845811
314.096700 2.599883
314.308700 0.546543
314.520800 0.154464
314.732800 0.152601
314.944900 3.146128
315.157000 0.529712
315.369200 3.082785
315.581300 0.175374
315.793400 -0.073515
316.005600 3.226342
316.217700 3.168203
316.429900 0.872928
316.642100 0.188199
316.854300 3.093772
317.066600 2.764475
317.278800 0.408965
317.491100 0.021147
317.703300 0.010539
317.915600 0.476902
318.127900 0.754678
318.340200 0.322358
318.552500 0.719978
318.764900 3.139249
318.977200 0.677924
319.189600 -0.074292
319.401900 3.427324
319.614300 0.954984
319.826700 0.951739
320.039200 3.358886
320.251600 0.651166
320.464000 0.464687
320.676500 3.265290
320.889000 -0.484982
321.101400 0.237290
321.313900 3.310268
321.526500 3.516800
321.739000 0.077724
321.951500 0.333653
322.164100 3.132580
322.376600 0.434731
322.589200 3.362859
322.801800 1.373525
323.014400 3.360972
323.227000 0.337843
323.439700 0.662187
323.652300 1.350718
323.865000 0.722502
324.077700 0.997007
324.290400 3.310268
324.503100 1.333257
324.715800 3.399154
324.928500 1.305123
325.141200 3.384174
325.354000 3.583765
325.566800 1.344552
325.779600 0.672851
325.992400 3.314710
326.205200 0.543446
326.418000 1.139908
326.630800 0.398225
326.843700 0.488109
327.056600 0.826753
327.269400 3.416973
327.482300 0.900546
327.695200 3.385964
327.908200 0.922934
328.121100 1.499687
328.334000 3.554126
328.547000 0.315297
328.760000 0.656363
328.973000 1.244529
329.186000 0.932867
329.399000 3.445915
329.612000 1.876820
329.825100 0.977297
330.038100 0.430047
330.251200 3.572872
330.464300 1.537724
330.677400 3.635484
330.890500 1.131125
331.103600 0.991174
331.316700 0.989723
331.529900 3.658298
331.743100 3.583879
331.956200 3.661339
332.169400 1.164537
332.382600 3.520876
332.595900 3.740600
332.809100 1.096910
333.022300 1.550283
333.235600 0.443978
333.448900 3.655235
333.662200 3.609381
333.875500 1.034887
334.088800 1.397677
334.302100 1.619947
334.515400 3.647089
334.728800 0.782732
334.942200 1.041495
335.155500 1.625998
335.368900 1.802622
335.582300 0.897369
335.795800 3.676968
336.009200 1.158362
336.222700 1.289660
336.436100 0.806704
336.649600 3.795949
336.863100 0.659020
337.076600 3.787035
337.290100 3.741388
337.503600 3.672098
337.717200 0.569800
337.930700 3.722716
338.144300 0.885614
338.357900 0.657159
338.571500 3.715669
338.785100 1.256047
338.998700 0.964484
339.212400 3.815312
339.426000 0.629718
339.639700 3.667266
339.853300 0.547584
340.067000 3.741388
340.280700 3.765594
340.494500 3.790074
340.708200 3.745543
340.921900 0.878089
341.135700 0.882522
341.349500 1.004539
341.563300 1.150383
341.777100 0.838090
341.990900 0.901747
342.204700 3.816042
342.418500 1.308130
342.632400 0.623634
342.846300 1.148082
343.060100 3.693023
343.274000 3.825036
343.487900 1.012610
343.701900 1.035517
343.915800 3.793022
344.129700 1.182530
344.343700 1.593315
344.557700 1.234583
344.771700 3.809694
344.985700 3.914502
345.199700 3.834484
345.413700 1.277470
345.627700 0.618384
345.841800 3.870521
346.055900 0.854993
346.269900 3.868644
346.484000 1.337514
346.698100 3.825686
346.912300 3.850340
347.126400 3.906012
347.340600 1.155654
347.554700 3.883264
347.768900 3.886321
347.983100 3.942058
348.197300 3.889246
348.411500 1.171601
348.625700 1.123250
348.840000 1.079072
349.054200 3.926085
349.268500 0.992418
349.482800 0.908008
349.697100 1.360533
349.911400 1.292371
350.125700 1.003160
350.340000 3.937869
350.554400 1.119664
350.768700 0.895773
350.983100 3.917820
351.197500 3.889246
351.411900 3.984437
351.626300 3.954918
351.840700 0.858545
352.055200 3.931966
352.269600 1.075809
352.484100 3.950851
352.698600 3.990072
352.913100 3.896857
353.127600 1.173804
353.342100 3.948266
353.556600 3.994713
353.771200 2.592561
353.985800 3.943643
354.200300 0.833641
354.414900 0.803846
354.629500 1.786569
354.844100 3.994273
355.058800 3.971879
355.273400 2.132520
355.488100 3.989138
355.702700 0.924377
355.917400 1.092583
356.132100 1.830836
356.346800 3.982000
356.561500 1.443263
356.776300 0.994324
356.991000 0.921465
357.205800 1.227596
357.420600 1.228534
357.635300 0.931279
357.850100 1.123195
358.065000 0.796588
358.279800 1.795857
358.494600 1.452139
358.709500 1.129218
358.924300 3.975799
359.139200 1.167643
359.354100 3.988202
359.569000 0.812188
359.783900 1.866690
359.998900 3.957464
360.213800 1.685493
360.428800 1.887926
360.643800 1.273227
360.858700 2.545973
361.073700 4.040048
361.288800 4.042142
361.503800 4.026452
361.718800 1.219950
361.933900 4.009323
362.148900 4.016866
362.364000 1.267986
362.579100 1.203707
362.794200 1.626409
363.009300 4.072250
363.224500 4.031206
363.439600 0.981705
363.654800 0.800472
363.869900 4.028164
364.085100 1.049600
364.300300 2.171832
364.515500 4.049102
364.730800 1.287599
364.946000 1.870916
365.161200 4.048325
365.376500 1.751906
365.591800 1.814255
365.807100 1.276893
366.022400 1.425004
366.237700 4.078022
366.453000 1.036136
366.668400 1.610809
366.883700 0.803324
367.099100 0.925334
367.314500 1.310722
367.529900 1.821497
367.745300 1.323689
367.960700 1.968801
368.176100 1.366344
368.391600 4.101850
368.607000 1.163958
368.822500 1.420819
369.038000 1.242762
369.253500 4.100405
369.469000 1.833686
369.684500 4.136974
369.900100 2.469546
370.115600 4.067926
370.331200 1.238709
370.546800 4.104009
370.762400 1.259693
370.978000 4.107990
371.193600 1.919659
371.409200 4.124798
371.624900 1.433981
371.840500 4.181129
372.056200 1.032304
372.271900 1.161110
372.487600 2.765210
372.703300 0.977627
372.919000 1.360610
373.134800 2.017097
373.350500 1.948943
373.566300 2.473396
373.782000 1.070803
373.997800 2.330649
374.213600 1.217572
374.429400 4.167613
374.645300 1.187873
374.861100 4.167317
375.077000 0.985909
375.292800 4.182329
375.508700 2.797268
375.724600 4.210586
375.940500 1.278386
376.156400 4.224455
376.372400 1.707073
376.588300 4.218667
376.804300 4.234720
377.020300 1.248450
377.236200 1.811168
377.452200 4.269816
377.668200 4.261620
377.884300 4.260358
378.100300 1.963231
378.316400 4.291879
378.532400 4.271028
378.748500 1.924779
378.964600 1.585725
379.180700 1.533147
379.396800 1.709663
379.612900 1.472360
379.829100 1.581666
380.045200 2.870786
380.261400 4.315991
380.477600 1.329191
380.693800 1.944848
380.910000 4.341138
381.126200 1.543665
381.342400 4.319959
381.558700 1.442763
381.774900 1.579337
381.991200 1.245513
382.207500 2.633426
382.423800 2.218480
382.640100 1.457892
382.856400 1.833480
383.072800 1.339498
383.289100 1.517895
383.505500 2.654217
383.721900 1.764981
383.938200 1.220876
384.154600 4.345099
384.371100 1.020970
384.587500 1.696545
384.803900 2.032436
385.020400 4.355509
385.236800 4.356332
385.453300 1.403961
385.669800 4.340702
385.886300 4.360745
386.102800 1.912962
386.319400 1.346338
386.535900 4.371972
386.752500 1.529442
386.969000 1.806571
387.185600 1.345091
387.402200 1.839108
387.618800 0.941633
387.835500 1.500934
388.052100 1.046838
388.268700 1.193200
388.485400 1.327943
388.702100 1.208081
388.918800 1.319955
389.135500 1.378469
389.352200 1.261133
389.568900 1.538088
389.785600 0.912919
390.002400 0.929437
390.219200 1.290950
390.435900 0.951888
390.652700 0.942980
390.869500 1.026008
391.086300 0.935417
391.303200 0.962469
391.520000 0.900433
391.736900 0.945904
391.953700 0.868910
392.170600 0.816741
392.387500 0.837289
392.604400 0.873153
392.821300 0.886262
393.038300 0.768828
393.255200 0.612012
393.472200 0.813823
393.689100 0.649066
393.906100 0.633618
394.123100 0.712384
394.340100 0.667770
394.557200 0.667487
394.774200 0.626545
394.991200 0.681693
395.208300 0.572411
395.425400 0.607272
395.642500 0.623468
395.859600 0.595795
396.076700 0.638105
396.293800 0.563389
396.510900 0.502290
396.728100 0.568528
396.945300 0.545517
397.162400 0.497060
397.379600 0.548692
397.596800 0.453171
397.814000 0.450122
398.031300 0.436568
398.248500 0.441253
398.465800 0.499141
398.683000 0.524045
398.900300 0.465362
399.117600 0.439755
399.334900 0.389096
399.552200 0.395904
399.769600 0.423735
399.986900 0.407514
400.204300 0.386941
400.421600 0.408661
400.639000 0.456926
400.856400 0.437017
401.073800 0.339555
401.291200 0.375378
401.508700 0.327800
401.726100 0.363885
401.943600 0.338197
402.161000 0.356245
402.378500 0.350972
402.596000 0.310581
402.813500 0.277128
403.031000 0.316999
403.248600 0.314015
403.466100 0.282935
403.683700 0.329817
403.901300 0.378173
404.118900 0.280853
404.336500 0.290599
404.554100 0.268858
404.771700 0.308701
404.989300 0.252744
405.207000 0.331458
405.424600 0.265381
405.642300 0.276642
405.860000 0.257579
406.077700 0.276024
406.295400 0.212100
406.513100 0.256275
406.730900 0.228011
406.948600 0.254978
407.166400 0.270532
407.384200 0.246634
407.602000 0.246813
407.819800 0.206324
408.037600 0.271849
408.255400 0.250311
408.473300 0.196888
408.691100 0.222597
408.909000 0.235912
409.126900 0.209457
409.344800 0.190716
409.562700 0.169435
409.780600 0.255346
409.998500 0.207318
410.216500 0.218561
410.434400 0.196302
410.652400 0.251444
410.870400 0.250052
411.088400 0.181833
411.306400 0.229750
411.524400 0.215062
411.742400 0.210642
411.960500 0.211276
412.178500 0.191278
412.396600 0.175946
412.614700 0.206538
412.832800 0.171834
413.050900 0.207937
413.269000 0.195904
413.487100 0.172395
413.705300 0.175308
413.923400 0.211053
414.141600 0.162567
414.359800 0.194141
414.578000 0.146486
414.796200 0.182645
415.014400 0.187537
415.232600 0.170606
415.450900 0.228978
415.669200 0.168050
415.887400 0.222469
416.105700 0.195859
416.324000 0.178787
416.542300 0.130814
416.760600 0.171158
416.979000 0.208863
417.197300 0.179734
417.415700 0.181077
417.634100 0.160671
417.852400 0.182427
418.070800 0.173521
418.289300 0.178580
418.507700 0.215321
418.726100 0.179107
418.944600 0.176710
419.163000 0.153622
419.381500 0.142913
419.600000 0.160286
419.818500 0.179618
420.037000 0.165505
420.255500 0.149108
420.474100 0.177501
420.692600 0.187135
420.911200 0.166140
421.129800 0.162232
421.348300 0.141520
421.566900 0.171918
421.785600 0.156030
422.004200 0.164018
422.222800 0.130207
422.441500 0.171250
422.660100 0.159264
422.878800 0.171572
423.097500 0.127086
423.316200 0.121172
423.534900 0.148592
423.753600 0.136291
423.972400 0.169801
424.191100 0.140871
424.409900 0.146759
424.628700 0.134407
424.847500 0.153016
425.066300 0.172430
425.285100 0.174902
425.503900 0.130291
425.722800 0.150941
425.941600 0.148927
426.160500 0.170819
426.379300 0.132126
426.598200 0.180800
426.817100 0.163473
427.036100 0.184457
427.255000 0.163314
427.473900 0.141512
427.692900 0.188491
427.911800 0.141489
428.130800 0.160466
428.349800 0.191214
428.568800 0.131610
428.787800 0.159743
429.006800 0.143210
429.225900 0.191546
429.444900 0.172188
429.664000 0.125506
429.883100 0.176069
430.102200 0.204798
430.321300 0.172846
430.540400 0.162083
430.759500 0.161165
430.978700 0.173945
431.197800 0.145557
431.417000 0.151387
431.636200 0.151523
431.855300 0.140593
432.074500 0.167956
432.293800 0.186069
432.513000 0.205084
432.732200 0.168514
432.951500 0.219505
433.170700 0.175347
433.390000 0.140045
433.609300 0.188334
433.828600 0.169404
434.047900 0.196356
434.267300 0.214083
434.486600 0.172482
434.705900 0.184310
434.925300 0.209175
435.144700 0.171995
435.364100 0.171149
435.583500 0.172341
435.802900 0.161249
436.022300 0.187164
436.241800 0.157164
436.461200 0.185695
436.680700 0.216509
436.900100 0.161853
437.119600 0.199673
437.339100 0.179858
437.558600 0.195625
437.778200 0.166252
437.997700 0.194632
438.217300 0.204725
438.436800 0.188285
438.656400 0.186161
438.876000 0.197806
439.095600 0.177583
439.315200 0.204257
439.534800 0.194372
439.754500 0.173206
439.974100 0.238695
440.193800 0.221467
440.413500 0.253964
440.633100 0.208430
440.852800 0.232864
441.072500 0.251454
441.292300 0.231143
441.512000 0.219328
441.731800 0.232334
441.951500 0.250656
442.171300 0.228642
442.391100 0.224090
442.610900 0.223259
442.830700 0.237351
443.050500 0.214246
443.270300 0.219410
443.490200 0.224549
443.710100 0.250636
443.929900 0.227292
444.149800 0.230304
444.369700 0.228305
444.589600 0.232793
444.809500 0.241126
445.029500 0.237680
445.249400 0.245758
445.469400 0.275921
445.689400 0.223067
445.909300 0.232368
446.129300 0.270058
446.349300 0.269961
446.569400 0.279876
446.789400 0.246598
447.009400 0.268520
447.229500 0.249427
447.449600 0.274103
447.669600 0.289883
447.889700 0.264580
448.109800 0.245877
448.330000 0.289227
448.550100 0.313898
448.770200 0.264689
448.990400 0.288626
449.210600 0.325067
449.430700 0.273621
449.650900 0.268434
449.871100 0.291764
450.091400 0.291150
450.311600 0.309830
450.531800 0.301169
450.752100 0.302483
450.972400 0.302033
451.192600 0.315866
451.412900 0.351697
451.633200 0.329485
451.853500 0.310302
452.073900 0.332092
452.294200 0.345761
452.514600 0.323080
452.734900 0.266681
452.955300 0.287776
453.175700 0.328761
453.396100 0.337259
453.616500 0.338586
453.836900 0.313486
454.057400 0.308592
454.277800 0.342310
454.498300 0.309094
454.718800 0.350619
454.939300 0.359299
455.159700 0.352194
455.380300 0.350165
455.600800 0.343421
455.821300 0.349195
456.041900 0.348650
456.262400 0.363426
456.483000 0.366160
456.703600 0.357584
456.924200 0.376680
457.144800 0.408961
457.365400 0.349950
457.586000 0.368183
457.806700 0.388470
458.027400 0.395439
458.248000 0.426916
458.468700 0.377678
458.689400 0.399926
458.910100 0.442587
459.130800 0.429550
459.351600 0.434703
459.572300 0.389354
459.793100 0.421571
460.013800 0.400234
460.234600 0.445548
460.455400 0.399454
460.676200 0.471269
460.897000 0.440122
461.117800 0.416737
461.338700 0.420740
461.559500 0.455462
461.780400 0.398855
462.001300 0.449561
462.222200 0.444858
462.443100 0.448907
462.664000 0.466759
462.884900 0.443726
463.105900 0.449421
463.326800 0.471125
463.547800 0.533651
463.768700 0.463268
463.989700 0.478806
464.210700 0.505645
464.431700 0.521294
464.652800 0.509240
464.873800 0.485693
465.094800 0.471479
465.315900 0.525204
465.537000 0.504786
465.758100 0.493062
465.979200 0.514448
466.200300 0.522756
466.421400 0.522374
466.642500 0.543132
466.863700 0.524688
467.084800 0.521349
467.306000 0.558508
467.527200 0.571407
467.748400 0.555567
467.969600 0.560684
468.190800 0.585809
468.412000 0.574566
468.633300 0.527661
468.854500 0.567648
469.075800 0.540788
469.297000 0.629363
469.518300 0.610100
469.739600 0.658367
469.961000 0.566571
470.182300 0.603473
470.403600 0.636719
470.625000 0.590457
470.846300 0.619013
471.067700 0.661555
471.289100 0.564813
471.510500 0.629871
471.731900 0.611551
471.953300 0.624287
472.174800 0.679055
472.396200 0.675138
472.617700 0.712664
472.839100 0.637309
473.060600 0.746917
473.282100 0.735179
473.503600 0.649478
473.725100 0.699445
473.946700 0.654603
474.168200 0.701525
474.389800 0.668369
474.611300 0.733272
474.832900 0.746481
475.054500 0.709097
475.276100 0.793131
475.497700 0.760567
475.719300 0.763583
475.941000 0.693626
476.162600 0.738083
476.384300 0.756375
476.606000 0.641355
476.827700 0.768682
477.049400 0.768631
477.271100 0.770802
477.492800 0.744378
477.714500 0.749520
477.936300 0.760051
478.158000 0.803998
478.379800 0.796366
478.601600 0.793212
478.823400 0.710663
479.045200 0.830590
479.267000 0.901152
479.488800 0.790333
479.710700 0.766235
479.932500 0.776961
480.154400 0.819667
480.376300 0.920013
480.598200 0.770109
480.820100 0.965398
481.042000 0.780935
481.263900 0.784598
481.485900 0.808424
481.707800 0.854930
481.929800 0.834644
482.151700 0.909295
482.373700 0.873966
482.595700 0.929912
482.817700 0.833484
483.039800 0.881675
483.261800 0.858964
483.483800 0.942696
483.705900 0.905955
483.928000 0.976502
484.150100 0.913758
484.372100 0.948729
484.594300 0.918801
484.816400 0.961218
485.038500 0.896052
485.260600 0.894718
485.482800 0.907376
485.705000 0.985181
485.927100 0.946167
486.149300 0.954873
486.371500 0.965887
486.593700 0.972903
486.816000 0.934581
487.038200 0.953545
487.260500 0.967490
487.482700 0.917371
487.705000 0.942721
487.927300 0.954749
488.149600 0.924010
488.371900 0.995705
488.594200 0.959190
488.816500 1.063776
489.038900 1.068007
489.261200 0.864106
489.483600 1.060694
489.706000 0.926957
489.928400 1.093859
490.150800 1.070721
490.373200 1.083899
490.595600 1.139130
490.818000 1.020432
491.040500 1.333330
491.263000 1.036249
491.485400 1.168673
491.707900 0.983511
491.930400 1.180894
492.152900 1.048827
492.375500 1.060852
492.598000 0.986714
492.820500 1.071407
493.043100 1.038027
493.265700 1.091691
493.488200 1.110787
493.710800 1.158849
493.933400 1.056829
494.156100 1.103698
494.378700 1.156984
494.601300 1.077103
494.824000 0.951019
495.046600 1.122727
495.269300 1.170657
495.492000 1.007226
495.714700 1.083791
495.937400 1.114668
496.160100 1.493936
496.382900 1.114542
496.605600 1.127780
496.828400 1.378281
497.051100 1.243089
497.273900 1.072677
497.496700 0.967491
497.719500 1.077218
497.942300 1.207944
498.165200 1.307334
498.388000 1.297787
498.610900 1.334382
498.833700 1.228897
499.056600 1.152780
499.279500 1.082649
499.502400 1.110389
499.725300 1.326181
499.948200 1.045384
500.171200 1.165641
500.394100 1.161295
500.617100 1.121620
500.840000 1.252372
501.063000 1.038372
501.286000 1.057448
501.509000 1.102066
501.732000 1.400240
501.955100 1.172086
502.178100 1.207664
502.401200 1.093948
502.624200 1.083903
502.847300 1.217217
503.070400 1.170635
503.293500 1.126532
503.516600 1.062135
503.739700 1.097323
503.962800 1.204176
504.186000 1.161661
504.409200 1.430761
504.632300 1.100534
504.855500 1.422950
505.078700 1.036574
505.301900 2.111906
505.525100 1.094909
505.748300 1.152099
505.971600 0.942183
506.194800 1.315210
506.418100 1.145427
506.641400 1.369050
506.864700 1.125918
507.088000 1.129891
507.311300 1.092883
507.534600 1.253316
507.757900 1.287382
507.981300 1.246785
508.204600 1.204251
508.428000 1.429781
508.651400 1.188207
508.874800 1.223018
509.098200 1.232287
509.321600 1.070785
509.545000 1.286232
509.768500 1.449278
509.991900 1.142573
510.215400 1.147025
510.438800 1.044463
510.662300 1.192687
510.885800 1.241130
511.109300 1.141766
511.332900 1.115681
511.556400 1.155157
511.779900 1.079085
512.003500 1.198271
512.227000 1.143112
512.450600 1.334284
512.674200 1.350427
512.897800 1.100965
513.121400 1.049192
513.345100 1.124511
513.568700 1.104173
513.792300 1.441282
514.016000 1.108717
514.239700 1.104680
514.463400 1.169730
514.687100 1.116655
514.910800 1.032792
515.134500 1.135716
515.358200 1.386561
515.581900 1.335269
515.805700 1.078157
516.029500 1.113293
516.253200 1.030394
516.477000 1.474320
516.700800 0.986004
516.924600 1.053151
517.148500 1.095863
517.372300 1.175911
517.596100 1.032200
517.820000 1.299307
518.043900 1.025822
518.267700 1.063688
518.491600 1.059044
518.715500 1.217757
518.939500 1.033817
519.163400 1.064625
519.387300 1.194407
519.611300 1.080412
519.835200 1.134192
520.059200 1.114833
520.283200 1.302318
520.507200 1.179544
520.731200 1.165566
520.955200 1.006625
521.179200 1.271580
521.403300 0.993917
521.627300 1.046508
521.851400 1.234819
522.075500 1.124429
522.299600 1.065863
522.523700 1.133056
522.747800 1.157690
522.971900 1.450756
523.196000 0.940997
523.420200 1.169781
523.644300 1.392174
523.868500 1.175867
524.092700 1.018726
524.316900 1.021815
524.541100 0.941577
524.765300 1.150295
524.989500 1.190105
525.213800 1.063930
525.438000 1.062349
525.662300 0.974623
525.886500 0.860746
526.110800 0.879833
526.335100 0.896912
526.559400 0.923432
526.783700 1.047352
527.008100 0.899782
527.232400 1.003925
527.456800 1.011685
527.681100 1.026568
527.905500 1.138248
528.129900 0.909842
528.354300 0.791168
528.578700 1.153379
528.803100 0.907012
529.027600 0.934623
529.252000 0.934959
529.476500 0.882893
529.700900 0.890031
529.925400 0.758588
530.149900 0.982943
530.374400 0.910814
530.598900 0.834203
530.823400 0.992049
531.048000 0.867123
531.272500 0.790430
531.497100 0.925165
531.721700 0.849744
531.946200 0.883773
532.170800 0.861741
532.395400 0.950413
532.620000 0.780878
532.844700 0.819548
533.069300 0.876643
533.294000 0.862093
533.518600 0.707624
533.743300 0.833716
533.968000 0.801130
534.192700 0.745279
534.417400 0.748640
534.642100 0.786846
534.866800 0.829387
535.091600 0.773228
535.316300 0.756405
535.541100 0.817592
535.765900 0.639716
535.990700 0.823789
536.215500 0.689479
536.440300 0.778529
536.665100 0.679060
536.889900 0.755487
537.114800 0.765949
537.339600 0.765131
537.564500 0.774893
537.789400 0.715997
538.014300 0.721663
538.239200 0.745992
538.464100 0.685640
538.689000 0.654311
538.913900 0.584780
539.138900 0.693874
539.363800 0.656200
539.588800 0.662445
539.813800 0.632329
540.038800 0.732014
540.263800 0.685057
540.488800 0.697143
540.713800 0.613476
540.938900 0.616823
541.163900 0.624878
541.389000 0.631116
541.614000 0.620442
541.839100 0.608913
542.064200 0.618811
542.289300 0.567731
542.514400 0.624537
542.739600 0.630814
542.964700 0.586486
543.189900 0.632042
543.415000 0.581491
543.640200 0.574122
543.865400 0.575093
544.090600 0.596601
544.315800 0.513062
544.541000 0.577320
544.766200 0.554602
544.991500 0.493310
545.216700 0.490377
545.442000 0.521511
545.667300 0.481572
545.892600 0.550435
546.117900 0.498749
546.343200 0.558976
546.568500 0.485946
546.793800 0.491107
547.019200 0.436583
547.244500 0.467549
547.469900 0.502056
547.695300 0.438443
547.920600 0.469287
548.146000 0.428022
548.371500 0.496871
548.596900 0.436896
548.822300 0.488047
549.047800 0.436312
549.273200 0.426674
549.498700 0.429673
549.724200 0.481359
549.949600 0.417245
550.175100 0.386983
550.400700 0.414436
550.626200 0.402708
550.851700 0.387732
551.077300 0.394990
551.302800 0.446255
551.528400 0.388563
551.754000 0.361603
551.979600 0.406503
552.205200 0.368708
552.430800 0.359075
552.656400 0.403239
552.882000 0.404407
553.107700 0.399174
553.333300 0.352147
553.559000 0.356653
553.784700 0.348000
554.010400 0.394040
554.236100 0.319201
554.461800 0.324152
554.687500 0.321439
554.913200 0.335105
555.139000 0.338382
555.364800 0.317734
555.590500 0.304950
555.816300 0.298950
556.042100 0.305640
556.267900 0.324263
556.493700 0.340713
556.719500 0.301782
556.945400 0.299721
557.171200 0.298217
557.397100 0.327413
557.623000 0.338201
557.848800 0.258344
558.074700 0.271605
558.300600 0.246059
558.526600 0.254350
558.752500 0.288275
558.978400 0.258106
559.204400 0.250531
559.430300 0.253565
559.656300 0.242433
559.882300 0.237322
560.108300 0.236132
560.334300 0.259740
560.560300 0.275490
560.786300 0.255153
561.012400 0.244154
561.238400 0.254690
561.464500 0.217213
561.690500 0.220950
561.916600 0.255036
562.142700 0.221113
562.368800 0.215160
562.594900 0.238941
562.821100 0.215352
563.047200 0.234837
563.273300 0.245560
563.499500 0.193731
563.725700 0.222425
563.951900 0.167263
564.178100 0.207059
564.404300 0.189495
564.630500 0.215945
564.856700 0.196991
565.082900 0.209023
565.309200 0.161847
565.535500 0.191667
565.761700 0.163351
565.988000 0.156681
566.214300 0.177211
566.440600 0.202324
566.666900 0.177659
566.893200 0.171801
567.119600 0.169309
567.345900 0.170888
567.572300 0.168658
567.798700 0.150172
568.025000 0.176783
568.251400 0.169003
568.477800 0.166235
568.704300 0.158091
568.930700 0.142172
569.157100 0.158178
569.383600 0.141574
569.610000 0.143434
569.836500 0.145513
570.063000 0.135330
570.289500 0.155996
570.516000 0.146727
570.742500 0.121992
570.969000 0.142981
571.195600 0.141128
571.422100 0.129842
571.648700 0.140729
571.875200 0.127175
572.101800 0.131261
572.328400 0.125655
572.555000 0.120340
572.781600 0.120203
573.008200 0.125053
573.234900 0.136678
573.461500 0.129778
573.688200 0.123052
573.914900 0.120645
574.141500 0.116015
574.368200 0.117495
574.594900 0.108507
574.821600 0.103087
575.048400 0.118838
575.275100 0.108560
575.501800 0.114070
575.728600 0.103681
575.955400 0.100870
576.182100 0.105790
576.408900 0.099962
576.635700 0.105791
576.862600 0.090590
577.089400 0.096134
577.316200 0.087171
577.543100 0.097157
577.769900 0.091420
577.996800 0.089487
578.223700 0.086098
578.450500 0.091086
578.677400 0.092916
578.904400 0.092953
579.131300 0.077569
579.358200 0.081376
579.585100 0.082237
579.812100 0.076661
580.039100 0.075393
580.266000 0.074149
580.493000 0.071000
580.720000 0.069955
580.947000 0.071304
581.174100 0.066776
581.401100 0.071651
581.628100 0.072556
581.855200 0.067249
582.082200 0.064905
582.309300 0.069111
582.536400 0.064736
582.763500 0.062269
582.990600 0.055595
583.217700 0.052747
583.444900 0.052478
583.672000 0.059012
583.899100 0.050627
584.126300 0.059185
584.353500 0.053111
584.580700 0.055280
584.807900 0.060500
585.035100 0.065654
585.262300 0.062482
585.489500 0.065103
585.716700 0.049561
585.944000 0.054662
586.171300 0.050514
586.398500 0.050946
586.625800 0.050907
586.853100 0.047912
587.080400 0.043646
587.307700 0.039287
587.535000 0.052272
587.762400 0.044207
587.989700 0.037217
588.217100 0.038739
588.444500 0.043685
588.671800 0.035264
588.899200 0.044128
589.126600 0.033268
589.354000 0.051048
589.581500 0.032733
589.808900 0.033004
590.036300 0.038766
590.263800 0.041182
590.491300 0.032903
590.718700 0.035641
590.946200 0.027197
591.173700 0.039300
591.401200 0.037067
591.628800 0.036631
591.856300 0.041018
592.083800 0.037504
592.311400 0.018950
592.538900 0.029649
592.766500 0.048421
592.994100 0.031269
593.221700 0.040962
593.449300 0.043102
593.676900 0.036737
593.904600 0.036578
594.132200 0.038684
594.359800 0.041265
594.587500 0.030590
594.815200 0.028270
595.042900 0.035425
595.270500 0.028493
595.498300 0.030940
595.726000 0.028604
595.953700 0.036298
596.181400 0.024609
596.409200 0.026988
596.636900 0.021549
596.864700 0.034928
597.092500 0.025577
597.320300 0.032107
597.548100 0.039409
597.775900 0.033605
598.003700 0.031382
598.231500 0.033319
598.459400 0.033192
598.687200 0.037840
598.915100 0.037461
599.143000 0.031223
599.370900 0.031312
599.598800 0.029452
599.826700 0.017466
600.054600 0.027742
600.282500 0.027843
600.510500 0.040508
600.738400 0.012140
600.966400 0.017842
601.194400 0.020164
601.422300 0.022516
601.650300 0.006698
601.878300 0.012908
602.106400 0.023430
602.334400 0.031952
602.562400 0.022836
602.790500 0.024413
603.018500 0.013590
603.246600 0.019611
603.474700 0.022211
603.702800 0.030617
603.930900 0.023875
604.159000 0.017548
604.387100 0.025440
604.615200 0.020383
604.843400 0.017199
605.071500 0.019742
605.299700 0.009290
605.527900 0.010981
605.756100 0.012637
605.984300 0.020448
606.212500 0.006831
606.440700 0.002731
606.668900 0.000811
606.897200 0.004521
607.125400 0.011540
607.353700 0.008224
607.581900 0.016941
607.810200 0.004258
608.038500 0.009654
608.266800 0.016645
608.495100 0.005978
608.723500 -0.006373
608.951800 0.012523
609.180100 0.006924
609.408500 0.009736
609.636900 0.014873
609.865300 0.011316
610.093600 0.019043
610.322000 0.004468
610.550500 0.007848
610.778900 0.003505
611.007300 0.012912
611.235700 0.021450
611.464200 0.017128
611.692700 0.017903
611.921100 0.006100
612.149600 0.020509
612.378100 0.014580
612.606600 0.014595
612.835100 0.023852
613.063700 0.015069
613.292200 0.015720
613.520800 0.003368
613.749300 0.015864
613.977900 0.018434
614.206500 0.003421
614.435100 0.034962
614.663700 0.011791
614.892300 0.019011
615.120900 0.008175
615.349500 0.016426
615.578200 0.014343
615.806800 -0.002167
616.035500 0.001556
616.264200 0.007786
616.492900 0.011265
616.721600 0.005032
616.950300 -0.003043
617.179000 0.000561
617.407700 -0.000219
617.636500 0.006542
617.865200 0.007940
618.094000 0.010130
618.322700 0.004898
618.551500 0.007792
618.780300 -0.010011
619.009100 -0.000919
619.237900 0.013295
619.466700 -0.000136
619.695600 0.016539
619.924400 0.011856
620.153300 -0.001392
620.382100 -0.002287
620.611000 0.011623
620.839900 0.007307
621.068800 -0.005860
621.297700 0.006791
621.526600 0.007837
621.755600 0.008921
621.984500 0.025209
622.213500 -0.005904
622.442400 -0.002978
622.671400 0.027401
622.900400 0.019533
623.129400 0.010226
623.358400 0.007223
623.587400 0.002177
623.816400 -0.015164
624.045400 0.007943
624.274500 -0.000431
624.503500 0.009407
624.732600 -0.005867
624.961700 0.001379
625.190800 0.002390
625.419900 -0.005248
625.649000 -0.005037
625.878100 -0.007624
626.107200 0.008952
626.336400 0.003769
626.565500 0.008021
626.794700 0.005358
627.023800 0.003006
627.253000 -0.011639
627.482200 0.016875
627.711400 -0.003518
627.940600 0.009954
628.169800 0.008947
628.399100 0.019321
628.628300 0.022782
628.857600 -0.031890
629.086800 -0.000677
629.316100 -0.006474
629.545400 -0.006127
629.774700 0.009775
630.004000 0.015822
630.233300 0.012277
630.462600 -0.001067
630.692000 0.004251
630.921300 -0.005110
631.150700 0.006755
631.380100 -0.004856
631.609400 -0.003845
631.838800 0.015902
632.068200 0.004092
632.297600 0.017744
632.527100 -0.015085
632.756500 0.011147
632.985900 0.002528
633.215400 0.001308
633.444800 0.018608
633.674300 0.000716
633.903800 0.003133
634.133300 0.009094
634.362800 -0.001831
634.592300 -0.002620
634.821800 0.035477
635.051400 0.037441
635.280900 -0.003138
635.510500 -0.014894
635.740000 0.025949
635.969600 -0.004718
636.199200 -0.007491
636.428800 -0.004689
636.658400 0.018884
636.888000 0.001864
637.117700 0.015336
637.347300 0.022283
637.577000 0.012425
637.806600 0.023460
638.036300 0.005765
638.266000 -0.018265
638.495700 -0.001716
638.725400 0.002697
638.955100 -0.006931
639.184800 -0.004289
639.414500 0.002961
639.644300 -0.008134
639.874000 -0.000261
640.103800 0.001955
640.333600 0.018426
640.563300 -0.023498
640.793100 0.020018
641.022900 0.002453
641.252800 0.000676
641.482600 0.003281
641.712400 -0.008813
641.942300 0.001201
642.172100 0.018078
642.402000 0.002049
642.631900 0.003747
642.861700 -0.009516
643.091600 0.016587
643.321600 0.028433
643.551500 -0.009175
643.781400 0.053525
644.011300 -0.035370
644.241300 0.044037
644.471200 -0.010730
644.701200 -0.009385
644.931200 0.011483
645.161200 0.002135
645.391200 0.026469
645.621200 0.017244
645.851200 0.024504
646.081200 -0.047194
646.311300 0.009893
646.541300 0.039168
646.771400 -0.024510
647.001500 0.037904
647.231600 0.008186
647.461600 0.030870
647.691800 0.025781
647.921900 -0.038561
648.152000 0.005405
648.382100 0.001513
648.612300 0.013235
648.842400 0.003625
649.072600 0.015344
649.302800 0.004113
649.532900 0.013639
649.763100 -0.008849
649.993300 0.014792
650.223600 0.049076
650.453800 -0.036011
650.684000 -0.001304
650.914300 0.026234
651.144500 0.014544
651.374800 -0.000216
651.605100 -0.012081
651.835400 -0.019931
652.065700 0.036779
652.296000 -0.019788
652.526300 -0.006449
652.756600 0.001128
652.987000 -0.015014
653.217300 -0.016412
653.447700 0.029837
653.678000 -0.012739
653.908400 -0.006044
654.138800 0.018293
654.369200 0.005806
654.599600 0.032036
654.830000 -0.005402
655.060500 0.015933
655.290900 -0.004833
655.521300 0.023423
655.751800 0.026645
655.982300 0.002910
656.212800 0.000974
656.443300 0.001458
656.673800 0.001232
656.904300 0.002850
657.134800 0.016230
657.365300 0.015190
657.595900 0.012621
657.826400 0.014664
658.057000 0.013069
658.287500 0.010765
658.518100 -0.003218
658.748700 0.014774
658.979300 0.010727
659.209900 -0.006518
659.440600 -0.028025
659.671200 -0.041578
659.901800 -0.054603
660.132500 -0.047147
660.363200 -0.003641
660.593800 0.011055
660.824500 0.004632
661.055200 0.001468
661.285900 0.008849
661.516600 0.011551
661.747400 0.001618
661.978100 0.001269
662.208800 0.052675
662.439600 0.006548
662.670400 0.018063
662.901100 0.012181
663.131900 0.017932
663.362700 0.008434
663.593500 0.031034
663.824300 -0.001752
664.055200 0.008298
664.286000 -0.028025
664.516800 -0.005668
664.747700 0.029760
664.978600 0.018157
665.209400 0.002223
665.440300 0.033122
665.671200 0.014602
665.902100 0.005872
666.133000 0.015836
666.364000 0.003661
666.594900 0.005882
666.825900 0.010781
667.056800 0.002780
667.287800 0.021922
667.518800 0.026232
667.749700 0.035475
667.980700 0.011312
668.211700 -0.023370
668.442800 0.016831
668.673800 0.063032
668.904800 0.017844
669.135900 0.056048
669.366900 -0.012966
669.598000 -0.012985
669.829100 0.027928
670.060200 0.011213
670.291300 0.026858
670.522400 0.018908
670.753500 -0.015651
670.984600 0.010588
671.215700 0.012847
671.446900 0.026895
671.678100 0.029222
671.909200 0.010673
672.140400 0.035792
672.371600 0.010270
672.602800 -0.001787
672.834000 0.015449
673.065200 -0.008550
673.296400 -0.004476
673.527700 0.023051
673.758900 -0.003294
673.990200 0.008161
674.221400 0.003822
674.452700 0.007809
674.684000 0.002505
674.915300 0.029839
675.146600 0.018080
675.377900 0.019196
675.609300 -0.030798
675.840600 0.040719
676.071900 -0.022055
676.303300 0.010716
676.534700 0.000198
676.766100 0.016039
676.997400 0.036396
677.228800 -0.020223
677.460200 0.037861
677.691700 -0.010345
677.923100 0.032670
678.154500 -0.001622
678.386000 -0.019663
678.617400 0.026025
678.848900 0.042598
679.080400 0.001971
679.311900 0.001288
679.543400 -0.005371
679.774900 0.003137
680.006400 0.035866
680.237900 0.003934
680.469400 0.008427
680.701000 0.004675
680.932500 0.003263
681.164100 0.016719
681.395700 0.013326
681.627300 0.018251
681.858900 0.033429
682.090500 0.024349
682.322100 -0.000379
682.553700 0.002384
682.785400 -0.009830
683.017000 -0.002446
683.248700 -0.021473
683.480300 0.005852
683.712000 -0.026181
683.943700 -0.013660
684.175400 0.026380
684.407100 0.000274
684.638800 -0.015559
684.870500 0.007143
685.102300 0.005374
685.334000 0.009134
685.565800 0.019123
685.797500 0.032918
686.029300 -0.003432
686.261100 0.049505
686.492900 0.008513
686.724700 -0.006292
686.956500 0.002988
687.188300 0.016798
687.420200 -0.004861
687.652000 0.017579
687.883800 0.002268
688.115700 -0.012428
688.347600 -0.008401
688.579500 -0.019981
688.811400 -0.003300
689.043300 0.018159
689.275200 -0.006592
689.507100 0.018381
689.739000 -0.007355
689.971000 0.009153
690.202900 0.026789
690.434900 0.015080
690.666900 -0.017346
690.898800 -0.000503
691.130800 0.008825
691.362800 0.019268
691.594800 0.008147
691.826900 0.025388
692.058900 0.026089
692.290900 0.033224
692.523000 0.029606
692.755000 0.008116
692.987100 0.019869
693.219200 0.032647
693.451300 0.005045
693.683400 0.027282
693.915500 0.034957
694.147600 0.023625
694.379700 0.022867
694.611900 0.029219
694.844000 0.008100
695.076200 0.005224
695.308300 0.010228
695.540500 -0.006125
695.772700 -0.031962
696.004900 0.021709
696.237100 -0.002331
696.469300 0.008735
696.701600 0.024221
696.933800 -0.005837
697.166000 -0.002963
697.398300 0.023573
697.630600 0.011077
697.862800 0.043204
698.095100 0.041850
698.327400 0.016480
698.559700 0.019661
698.792000 0.009239
699.024300 0.011389
699.256700 0.017077
699.489000 0.010649
699.721400 0.033222
699.953700 0.001618
700.186100 0.020107
700.418500 0.001691
700.650900 0.022431
700.883300 -0.005453
701.115700 0.020448
701.348100 -0.017889
701.580600 0.045246
701.813000 0.016678
702.045400 0.003058
702.277900 -0.007666
702.510400 -0.000370
702.742900 0.001918
702.975300 -0.003365
703.207800 -0.008907
703.440300 0.038664
703.672900 0.031731
703.905400 0.007275
704.137900 0.026369
704.370500 0.005623
704.603000 -0.003976
704.835600 0.018374
705.068200 -0.024601
705.300800 -0.008156
705.533400 0.006755
705.766000 0.008960
705.998600 0.014292
706.231200 0.021506
706.463800 0.033194
706.696500 0.015107
706.929100 0.001065
707.161800 -0.022874
707.394500 0.032046
707.627200 0.006401
707.859900 0.036684
708.092600 0.026377
708.325300 0.023336
708.558000 -0.025731
708.790700 0.016068
709.023500 0.038148
709.256200 0.029557
709.489000 -0.030052
709.721700 0.001024
709.954500 -0.010912
710.187300 -0.013923
710.420100 0.025987
710.652900 -0.028023
710.885700 -0.008040
711.118600 -0.007171
711.351400 -0.022117
711.584200 0.009901
711.817100 0.038222
712.050000 0.025736
712.282800 0.031604
712.515700 0.001226
712.748600 0.016945
712.981500 -0.019044
713.214400 0.023125
713.447400 0.000365
713.680300 0.018467
713.913200 0.011674
714.146200 0.021081
714.379100 -0.005338
714.612100 0.016176
714.845100 0.000163
715.078100 0.020796
715.311100 -0.022460
715.544100 0.018087
715.777100 0.001172
716.010200 -0.003547
716.243200 0.012212
716.476200 0.028178
716.709300 0.012547
716.942400 0.019688
717.175400 -0.032233
717.408500 0.043096
717.641600 0.012802
717.874700 0.023863
718.107800 0.009726
718.341000 0.009426
718.574100 -0.005053
718.807200 0.017622
719.040400 0.008597
719.273600 0.023450
719.506700 0.019061
719.739900 0.007929
719.973100 0.006404
720.206300 -0.000046
720.439500 0.023790
720.672700 -0.014041
720.906000 0.001037
721.139200 0.018731
721.372500 0.030085
721.605700 0.029995
721.839000 0.019175
722.072300 0.008416
722.305500 -0.011221
722.538800 0.004721
722.772100 -0.013813
723.005500 0.002539
723.238800 -0.009634
723.472100 -0.021130
723.705500 0.019217
723.938800 -0.001185
724.172200 -0.006651
724.405600 0.008011
724.638900 0.059519
724.872300 -0.002340
725.105700 0.030921
725.339100 0.004674
725.572600 0.025263
725.806000 0.001482
726.039400 0.012260
726.272900 -0.011886
726.506300 0.005860
726.739800 -0.004508
726.973300 -0.022624
727.206800 0.043793
727.440300 0.017886
727.673800 0.015022
727.907300 0.014813
728.140800 0.020881
728.374300 0.012150
728.607900 -0.009194
728.841400 -0.034558
729.075000 -0.005257
729.308600 -0.006148
729.542100 -0.013328
729.775700 0.021702
730.009300 -0.012708
730.242900 0.014628
730.476600 0.013690
730.710200 0.012394
730.943800 0.019735
731.177500 0.039550
731.411100 0.027348
731.644800 0.004017
731.878500 -0.011543
732.112200 0.031301
732.345800 0.028084
732.579500 0.030092
732.813300 -0.001408
733.047000 0.015570
733.280700 0.030383
733.514500 -0.000584
733.748200 0.014367
733.982000 0.028377
734.215700 0.001800
734.449500 0.001662
734.683300 0.006131
734.917100 -0.005405
735.150900 -0.017621
735.384700 0.018271
735.618500 -0.010083
735.852400 0.030829
736.086200 0.013945
736.320100 0.001813
736.553900 0.020949
736.787800 0.013209
737.021700 0.008649
737.255600 -0.004316
737.489500 -0.000673
737.723400 0.015780
737.957300 -0.019833
738.191200 0.009627
738.425200 0.013926
738.659100 -0.016731
738.893100 -0.018369
739.127100 0.030372
739.361000 0.014714
739.595000 0.022859
739.829000 0.003181
740.063000 -0.004305
740.297000 0.030107
740.531000 0.005460
740.765100 0.017777
740.999100 -0.004190
741.233200 0.018591
741.467200 0.006786
741.701300 -0.020345
741.935400 0.025760
742.169500 -0.032970
742.403600 0.004904
742.637700 0.003297
742.871800 -0.017125
743.105900 -0.016721
743.340000 -0.007708
743.574200 -0.000500
743.808300 0.008004
744.042500 0.007605
744.276700 0.018091
744.510800 -0.009117
744.745000 0.002113
744.979200 0.030248
745.213400 -0.010782
745.447700 -0.016269
745.681900 0.005994
745.916100 -0.001910
746.150400 -0.003488
746.384600 0.003959
746.618900 -0.008675
746.853200 -0.014114
747.087400 -0.000514
747.321700 0.013359
747.556000 0.012938
747.790300 0.030900
748.024700 -0.031998
748.259000 0.003297
748.493300 0.013266
748.727700 0.001074
748.962000 -0.008761
749.196400 0.001994
749.430800 -0.004953
749.665200 -0.027977
749.899500 -0.007892
750.133900 -0.007018
750.368400 0.013510
750.602800 0.020232
750.837200 -0.013320
751.071700 0.026884
751.306100 0.002201
751.540600 0.020914
751.775000 0.020963
752.009500 0.025091
752.244000 -0.001633
752.478500 -0.015576
752.713000 0.023987
752.947500 0.005732
753.182000 0.022375
753.416600 -0.018931
753.651100 0.033893
753.885600 -0.001528
754.120200 0.004961
754.354800 -0.015964
754.589400 0.026353
754.823900 0.005691
755.058500 0.002874
755.293100 0.017090
755.527800 -0.001973
755.762400 0.002489
755.997000 -0.003533
756.231700 0.011403
756.466300 0.003591
756.701000 0.001174
756.935600 0.013519
757.170300 0.017284
757.405000 0.031649
757.639700 0.018400
757.874400 0.037771
758.109100 0.035295
758.343800 0.023181
758.578600 0.002607
758.813300 0.008771
759.048100 -0.000371
759.282800 0.004669
759.517600 0.015447
759.752400 -0.000225
759.987200 0.013198
760.222000 0.021279
760.456800 0.012418
760.691600 0.008845
760.926400 0.019212
761.161300 0.008124
761.396100 0.005784
761.631000 0.035484
761.865800 0.038705
762.100700 0.017178
762.335600 0.016431
762.570500 0.002455
762.805400 0.002504
763.040300 0.005736
763.275200 0.007874
763.510100 0.015317
763.745000 0.006603
763.980000 0.016449
764.214900 -0.028702
764.449900 0.018144
764.684900 0.002358
764.919800 0.005041
765.154800 -0.017332
765.389800 0.008298
765.624800 0.044312
765.859900 -0.000909
766.094900 -0.002827
766.329900 -0.000765
766.565000 0.009990
766.800000 -0.012427
767.035100 0.018359
767.270100 0.015448
767.505200 -0.017505
767.740300 0.004528
767.975400 -0.011348
768.210500 -0.022100
768.445600 0.000652
768.680800 -0.012966
768.915900 0.029399
769.151000 0.000089
769.386200 -0.004384
769.621400 -0.005128
769.856500 0.013490
770.091700 0.020160
770.326900 0.016011
770.562100 -0.000973
770.797300 -0.005914
771.032500 -0.004469
771.267700 0.009412
771.503000 0.033528
771.738200 0.023704
771.973500 -0.024725
772.208700 0.028396
772.444000 0.018900
772.679300 -0.015420
772.914600 0.004659
773.149900 -0.006347
773.385200 0.004642
773.620500 0.012305
773.855800 0.014036
774.091100 -0.029699
774.326500 0.000925
774.561800 0.015392
774.797200 0.060146
775.032600 0.046049
775.267900 -0.035203
775.503300 0.016066
775.738700 -0.015648
775.974100 0.029950
776.209500 0.010195
776.445000 0.018049
776.680400 0.037449
776.915800 -0.004089
777.151300 -0.003659
777.386800 0.011297
777.622200 0.026418
777.857700 -0.019481
778.093200 -0.006029
778.328700 -0.008868
778.564200 0.016763
778.799700 -0.004964
779.035200 -0.001750
779.270700 -0.003483
779.506300 0.018844
779.741800 0.015610
779.977400 -0.009247
780.213000 -0.002538
780.448500 0.018827
780.684100 0.010088
780.919700 0.036670
781.155300 -0.004268
781.390900 0.027919
781.626500 0.021285
781.862200 -0.001484
782.097800 0.026268
782.333500 0.006736
782.569100 -0.014050
782.804800 -0.019696
783.040500 -0.026744
783.276100 -0.014514
783.511800 0.019271
783.747500 -0.005688
783.983200 -0.014518
784.219000 0.008490
784.454700 0.014493
784.690400 0.023008
784.926200 0.020541
785.161900 -0.011321
785.397700 0.022002
785.633500 -0.021962
785.869200 0.020093
786.105000 0.031856
786.340800 0.031641
786.576600 0.026740
786.812400 0.020093
787.048300 0.010311
787.284100 0.034909
787.519900 0.000576
787.755800 0.005973
787.991700 -0.015874
788.227500 0.010119
788.463400 0.015777
788.699300 0.004955
788.935200 -0.006460
789.171100 0.029889
789.407000 0.005108
789.642900 0.003711
789.878900 0.015681
790.114800 0.017743
790.350700 -0.004909
790.586700 -0.028956
790.822700 0.031787
791.058600 -0.004019
791.294600 -0.015198
791.530600 -0.008081
791.766600 -0.004394
792.002600 0.019724
792.238700 0.021404
792.474700 0.036169
792.710700 0.001666
792.946800 -0.022877
793.182800 -0.011869
793.418900 -0.006384
793.655000 -0.007113
793.891000 0.033565
794.127100 0.048920
794.363200 0.061878
794.599300 -0.015609
794.835500 0.036752
795.071600 0.036164
795.307700 0.036992
795.543900 0.002602
795.780000 0.009339
796.016200 -0.006925
796.252300 0.017314
796.488500 0.030892
796.724700 -0.000332
796.960900 0.054775
797.197100 0.021424
797.433300 -0.022815
797.669500 0.005857
797.905800 -0.003335
798.142000 0.026827
798.378300 -0.009706
798.614500 -0.007383
798.850800 0.018408
799.087100 0.019083
799.323300 0.004044
799.559600 -0.005645
799.795900 0.031649
800.032200 0.023192
800.268600 -0.010427
800.504900 0.002144
800.741200 0.024627
800.977600 0.001768
801.213900 0.039381
801.450300 -0.003647
801.686700 0.030247
801.923000 0.015701
802.159400 0.021460
802.395800 0.024641
802.632200 0.018358
802.868600 -0.015859
803.105100 -0.004618
803.341500 0.008017
803.577900 0.034958
803.814400 0.038735
804.050800 0.019793
804.287300 0.022531
804.523800 -0.000871
804.760300 0.027257
804.996800 -0.007485
805.233300 0.013806
805.469800 0.019951
805.706300 0.014536
805.942800 0.001749
806.179400 0.004213
806.415900 0.013564
806.652500 -0.007687
806.889000 0.055244
807.125600 0.003235
807.362200 -0.022720
807.598800 0.033774
807.835400 0.003449
808.072000 0.019306
808.308600 0.013250
808.545200 0.040229
808.781800 -0.003606
809.018500 0.034986
809.255100 0.012877
809.491800 -0.026271
809.728400 -0.022033
809.965100 -0.009426
810.201800 0.023390
810.438500 -0.032700
810.675200 -0.000614
810.911900 0.027290
811.148600 0.004932
811.385300 0.053078
811.622100 0.027661
811.858800 -0.025873
812.095600 -0.034721
812.332300 0.036857
812.569100 -0.056843
812.805900 0.005736
813.042700 0.045664
813.279500 0.056202
813.516300 -0.059153
813.753100 0.052053
813.989900 0.034018
814.226700 0.039061
814.463600 -0.000365
814.700400 0.014566
814.937300 -0.029548
815.174200 0.030397
815.411000 -0.056172
815.647900 -0.053247
815.884800 0.063220
816.121700 0.046090
816.358600 0.055302
816.595500 0.027358
816.832400 0.027518
817.069400 -0.009335
817.306300 0.026369
817.543300 0.062546
817.780200 -0.036377
818.017200 0.037796
818.254200 0.038777
818.491200 0.012582
818.728200 0.003218
818.965200 -0.024454
819.202200 -0.036619
819.439200 0.017460
819.676200 -0.010214
819.913300 -0.023725
820.150300 -0.049770
820.387400 0.056554
820.624400 0.018360
820.861500 0.026719
821.098600 0.014395
821.335700 0.075346
821.572700 0.017607
821.809900 0.058154
822.047000 0.102680
822.284100 -0.004879
822.521200 0.045375
822.758400 0.013325
822.995500 0.010762
823.232700 0.023686
823.469800 0.058775
823.707000 -0.006921
823.944200 0.027786
824.181400 -0.014900
824.418600 0.057747
824.655800 -0.028053
824.893000 0.052163
825.130200 0.047919
825.367500 0.034063
825.604700 -0.007525
825.841900 -0.022672
826.079200 0.058391
826.316500 0.034804
826.553700 0.038191
826.791000 0.042003
827.028300 0.048216
827.265600 0.050108
827.502900 0.003717
827.740200 0.020597
827.977600 0.007504
828.214900 0.070192
828.452200 -0.005659
828.689600 0.012136
828.927000 -0.019929
829.164300 -0.016753
829.401700 0.050688
829.639100 0.034123
829.876500 -0.037558
830.113900 0.075487
830.351300 0.061162
830.588700 -0.003856
830.826100 0.041641
831.063600 -0.050568
831.301000 0.086184
831.538500 -0.009173
831.775900 -0.022483
832.013400 -0.036105
832.250900 -0.029528
832.488400 0.097048
832.725900 0.019852
832.963400 0.054059
833.200900 0.054243
833.438400 -0.044589
833.675900 0.041927
833.913500 0.053323
834.151000 0.078990
834.388600 0.042898
834.626100 0.015613
834.863700 0.065384
835.101300 0.057222
835.338900 0.013117
835.576500 0.019326
835.814100 0.020879
836.051700 0.018444
836.289300 0.091014
836.526900 0.075196
836.764600 0.037847
837.002200 0.157121
837.239900 -0.015790
837.477500 -0.000284
837.715200 0.065610
837.952900 0.068403
838.190600 0.076455
838.428300 -0.020580
838.666000 -0.022499
838.903700 0.052643
839.141400 0.079275
839.379100 -0.031191
839.616900 0.062383
839.854600 -0.007143
840.092400 0.011202
840.330200 0.009337
840.567900 0.057930
840.805700 0.040184
841.043500 0.122989
841.281300 0.030642
841.519100 -0.032180
841.756900 -0.003665
841.994700 -0.016303
842.232600 0.001054
842.470400 0.045722
842.708200 0.029404
842.946100 -0.108381
843.184000 0.019522
843.421800 0.035980
843.659700 -0.094433
843.897600 0.047687
844.135500 0.118405
844.373400 -0.001112
844.611300 0.092096
844.849200 -0.053479
845.087200 -0.003201
845.325100 0.027194
845.563100 0.074206
845.801000 0.067350
846.039000 -0.034267
846.277000 -0.061742
846.514900 0.006164
846.752900 -0.099566
846.990900 -0.061199
847.228900 -0.008039
847.466900 0.115906
847.705000 0.178112
847.943000 -0.131240
848.181000 0.024207
848.419100 -0.011604
848.657100 0.031754
848.895200 0.022832
849.133300 0.104051
849.371300 0.055997
849.609400 0.125732
849.847500 0.164973
850.085600 -0.022020
850.323700 0.099575
850.561900 0.021308
850.800000 0.054459
851.038100 0.143361
851.276300 -0.047687
851.514400 -0.107631
851.752600 0.008631
851.990800 -0.095572
852.228900 0.006872
852.467100 0.017098
852.705300 0.040863
852.943500 -0.023907
853.181700 -0.019019
853.420000 0.044943
853.658200 -0.004915
853.896400 -0.000938
854.134700 -0.019912
854.372900 0.040976
854.611200 0.033690
854.849500 0.039648
855.087700 -0.034905
855.326000 0.057441
855.564300 0.013539
855.802600 0.151235
856.040900 0.063325
856.279200 0.037249
856.517600 0.060255
856.755900 0.048595
856.994200 0.062734
857.232600 -0.005076
857.471000 0.031869
857.709300 0.022261
857.947700 0.037769
858.186100 0.062436
858.424500 0.013658
858.662900 0.051828
858.901300 0.015377
859.139700 0.048152
859.378100 -0.014328
859.616600 0.062324
859.855000 -0.036529
860.093500 0.046574
860.331900 -0.013763
860.570400 -0.024228
860.808900 -0.038910
861.047300 -0.020386
861.285800 -0.004732
861.524300 0.251082
861.762800 0.083585
862.001300 0.162428
862.239900 0.012574
862.478400 0.118309
862.716900 -0.024595
862.955500 0.172637
863.194000 -0.064782
863.432600 -0.017274
863.671200 0.063245
863.909800 -0.000267
864.148300 0.054325
864.386900 0.070679
864.625500 0.110311
864.864200 0.052918
865.102800 -0.099835
865.341400 0.101445
865.580000 -0.049304
865.818700 0.197036
866.057300 0.004025
866.296000 0.096536
866.534700 0.005891
866.773300 0.081172
867.012000 0.039769
867.250700 0.085855
867.489400 -0.065550
867.728100 -0.003806
867.966900 0.019835
868.205600 -0.052420
868.444300 -0.018097
868.683100 -0.107884
868.921800 0.110931
869.160600 -0.003102
869.399300 0.008143
869.638100 0.074428
869.876900 -0.030231
870.115700 -0.020691
870.354500 -0.020370
870.593300 -0.078588
870.832100 0.073593
871.070900 -0.112399
871.309700 0.014274
871.548600 0.083929
871.787400 -0.087766
872.026300 -0.099911
872.265100 -0.010056
872.504000 -0.004966
872.742900 -0.042492
872.981800 -0.103017
873.220700 0.171580
873.459600 0.191878
873.698500 0.103205
873.937400 0.029430
874.176300 -0.078468
874.415300 0.209802
874.654200 0.063778
874.893200 0.166061
875.132100 0.025526
875.371100 0.045192
875.610100 0.003608
875.849100 0.072095
876.088000 0.095408
876.327000 0.074443
876.566100 0.010237
876.805100 0.022969
877.044100 0.017137
877.283100 -0.054627
877.522200 -0.048931
877.761200 0.030595
878.000300 0.012720
878.239300 0.071631
878.478400 -0.021603
878.717500 -0.062802
878.956600 0.049317
879.195700 0.043336
879.434800 -0.034237
879.673900 0.000278
879.913000 0.127085
880.152100 -0.042953
880.391300 0.082003
880.630400 0.098031
880.869600 0.013691
881.108700 -0.061327
881.347900 -0.007771
881.587100 0.028819
881.826200 0.034542
882.065400 0.104520
882.304600 -0.006852
882.543800 0.080088
882.783100 0.147700
883.022300 0.003519
883.261500 -0.006282
883.500700 0.039609
883.740000 -0.117037
883.979200 0.053098
884.218500 0.084199
884.457800 -0.028061
884.697100 0.058331
884.936300 0.055810
885.175600 0.079754
885.414900 0.014309
885.654200 0.051340
885.893600 -0.049043
886.132900 -0.001552
886.372200 0.014907
886.611600 -0.107579
886.850900 0.075348
887.090300 0.075142
887.329600 0.021707
887.569000 0.040061
887.808400 0.011473
888.047800 -0.034479
888.287200 -0.028009
888.526600 -0.016095
888.766000 -0.135592
889.005400 -0.030838
889.244800 0.016722
889.484300 0.052647
889.723700 0.237646
889.963200 0.005416
890.202600 0.255838
890.442100 0.039874
890.681600 -0.066307
890.921100 -0.017286
891.160600 0.079945
891.400100 -0.003806
891.639600 0.057497
891.879100 0.106067
892.118600 0.364302
892.358100 0.056334
892.597700 0.091640
892.837200 0.057142
893.076800 0.166518
893.316300 -0.000245
893.555900 0.114219
893.795500 0.091182
894.035100 -0.099264
894.274700 0.036486
894.514300 -0.084331
894.753900 -0.007271
894.993500 -0.029969
895.233100 -0.095918
895.472700 -0.001194
895.712400 0.038266
895.952000 0.062543
896.191700 0.162965
896.431400 -0.004501
896.671000 0.159799
896.910700 0.030014
897.150400 0.070852
897.390100 -0.037713
897.629800 -0.024647
897.869500 -0.081648
898.109200 0.161496
898.348900 0.165435
898.588700 0.083014
898.828400 0.195070
899.068200 0.135204
899.307900 0.114044
899.547700 0.096024
899.787500 0.009877
900.027200 0.061115
900.267000 0.167661
900.506800 0.046531
900.746600 -0.071657
900.986400 0.045238
901.226300 0.016749
901.466100 0.023892
901.705900 0.165525
901.945800 0.102971
902.185600 -0.028554
902.425500 0.007729
902.665400 -0.027235
902.905200 0.181143
903.145100 0.089650
903.385000 0.004834
903.624900 0.084176
903.864800 -0.179140
904.104700 0.133107
904.344600 -0.026787
904.584600 -0.128778
904.824500 -0.011590
905.064400 -0.012946
905.304400 0.123005
905.544400 -0.063500
905.784300 0.100423
906.024300 -0.006826
906.264300 -0.012634
906.504300 0.241203
906.744300 -0.072432
906.984300 -0.036363
907.224300 0.009558
907.464300 0.167317
907.704300 -0.041086
907.944400 0.106589
908.184400 -0.063976
908.424500 0.014963
908.664500 -0.077919
908.904600 -0.000231
909.144700 0.127211
909.384700 -0.003472
909.624800 -0.159656
909.864900 0.040738
910.105000 0.109854
910.345200 -0.095073
910.585300 0.147948
910.825400 0.137029
911.065500 -0.114993
911.305700 0.043709
911.545800 -0.106880
911.786000 -0.111253
912.026200 -0.051373
912.266300 0.136698
912.506500 0.053402
912.746700 0.230704
912.986900 0.276107
913.227100 -0.026083
913.467300 0.082547
913.707500 -0.145948
913.947800 0.063250
914.188000 0.106843
914.428300 0.239661
914.668500 0.097069
914.908800 -0.082267
915.149000 -0.094441
915.389300 0.266345
915.629600 0.271631
915.869900 0.011478
916.110200 -0.000144
916.350500 0.255804
916.590800 0.142162
916.831100 0.037199
917.071400 0.121760
917.311800 -0.011836
917.552100 0.022032
917.792500 -0.072593
918.032800 0.059267
918.273200 0.132941
918.513600 0.026509
918.753900 0.014157
918.994300 0.150775
919.234700 0.241456
919.475100 0.088488
919.715500 0.020406
919.956000 0.160557
920.196400 -0.041505
920.436800 -0.049262
920.677300 0.167272
920.917700 0.135338
921.158200 -0.039902
921.398600 0.079580
921.639100 0.373090
921.879600 -0.235446
922.120100 -0.124903
922.360600 -0.004783
922.601100 0.028983
922.841600 -0.000220
923.082100 0.023338
923.322600 0.001206
923.563100 0.113215
923.803700 0.053966
924.044200 -0.007308
924.284800 0.137528
924.525400 0.260888
924.765900 0.272383
925.006500 0.056231
925.247100 0.417871
925.487700 0.156465
925.728300 -0.037527
925.968900 0.022661
926.209500 -0.033354
926.450100 0.160274
926.690800 0.247987
926.931400 -0.014432
927.172000 -0.011388
927.412700 -0.070338
927.653300 0.079259
927.894000 0.061326
928.134700 0.465472
928.375400 0.075008
928.616100 0.018554
928.856800 0.152226
929.097500 0.145835
929.338200 0.491087
929.578900 0.039776
929.819600 0.360253
930.060400 0.328085
930.301100 -0.049283
930.541900 -0.050589
930.782600 0.143255
931.023400 -0.147751
931.264200 0.490687
931.504900 0.297555
931.745700 0.653860
931.986500 0.057388
932.227300 0.766386
932.468100 -0.094738
932.708900 -0.152294
932.949800 0.327534
933.190600 0.216503
933.431400 -0.102697
933.672300 0.122128
933.913100 0.227982
934.154000 -0.036610
934.394900 -0.003811
934.635800 -0.182839
934.876600 -0.088285
935.117500 -0.201102
935.358400 -0.034306
935.599300 1.551025
935.840300 -0.156167
936.081200 0.241502
936.322100 -0.218595
936.563000 0.052301
936.804000 0.332356
937.044900 -0.090439
937.285900 0.413973
937.526900 3.301030
937.767800 0.204199
938.008800 0.076653
938.249800 0.169684
938.490800 0.179589
938.731800 0.207965
938.972800 0.462757
939.213800 -0.066377
939.454900 0.050050
939.695900 0.088231
939.936900 0.686978
940.178000 -0.062521
940.419000 0.028413
940.660100 0.718452
940.901200 1.155753
941.142200 1.232573
941.383300 -0.009649
941.624400 -0.206788
941.865500 0.164914
942.106600 3.270446
942.347700 -0.215896
942.588900 0.381280
942.830000 0.370882
943.071100 0.214128
943.312300 0.300005
943.553400 0.257833
943.794600 0.276708
944.035700 1.282798
944.276900 0.033435
944.518100 0.151463
944.759300 -0.020147
945.000500 2.827369
945.241700 3.346549
945.482900 1.433920
945.724100 0.438675
945.965300 0.446852
946.206600 0.185721
946.447800 -0.216790
946.689100 0.281822
946.930300 -0.641199
947.171600 -0.059708
947.412800 3.171434
947.654100 1.047629
947.895400 0.413399
948.136700 0.284548
948.378000 0.030974
948.619300 0.118669
948.860600 0.182863
949.101900 -0.087031
949.343300 0.453557
949.584600 3.250176
949.825900 -0.134971
950.067300 0.614628
950.308600 0.005544
950.550000 0.000000
950.791400 -0.636627
951.032700 -0.022684
951.274100 3.051538
951.515500 0.198229
951.756900 -0.050487
951.998300 0.284548
952.239800 0.288272
952.481200 -0.153189
952.722600 -0.041142
952.964000 0.012619
953.205500 0.290971
953.446900 -0.097729
953.688400 0.577865
953.929900 0.246335
954.171300 1.770852
954.412800 0.957698
954.654300 0.093762
954.895800 -0.193989
955.137300 2.840106
955.378800 3.111934
955.620300 0.091025
955.861800 0.264447
956.103400 1.437685
956.344900 0.631187
956.586500 0.094641
956.828000 0.237547
957.069600 -0.015355
957.311100 -0.170419
957.552700 0.188751
957.794300 0.512144
958.035900 -0.343164
958.277500 0.706149
958.519100 0.058736
958.760700 0.992556
959.002300 0.951216
959.243900 0.078747
959.485600 0.873232
959.727200 0.422492
959.968800 0.505255
960.210500 0.114609
960.452200 0.720159
960.693800 2.919078
960.935500 -3.265290
961.177200 -0.338980
961.418900 -0.137776
961.660600 -0.146915
961.902300 0.522395
962.144000 0.552447
962.385700 -0.126864
962.627400 -0.154935
962.869200 -0.314896
963.110900 -0.030336
963.352700 -0.019032
963.594400 0.471863
963.836200 0.414105
964.077900 0.070945
964.319700 0.811364
964.561500 0.447352
964.803300 0.000000
965.045100 0.293714
965.286900 0.551141
965.528700 0.091770
965.770500 0.076369
966.012300 0.266268
966.254200 0.746368
966.496000 -0.286664
966.737900 0.463316
966.979700 0.167208
967.221600 0.225258
967.463400 3.189490
967.705300 0.616994
967.947200 -0.207332
968.189100 -0.601054
968.431000 0.093895
968.672900 0.458917
968.914800 -0.109054
969.156700 0.072977
969.398700 -0.378555
969.640600 -0.131064
969.882500 0.038799
970.124500 0.161888
970.366400 0.020025
970.608400 -0.217341
970.850400 -0.602272
971.092300 1.475448
971.334300 -0.114148
971.576300 0.120224
971.818300 -0.023834
972.060300 0.584391
972.302300 3.275081
972.544300 2.745075
972.786400 3.239550
973.028400 0.401325
973.270400 -0.096586
973.512500 1.128184
973.754500 1.172687
973.996600 2.994757
974.238700 0.357340
974.480700 -0.278882
974.722800 0.312296
974.964900 -0.182837
975.207000 0.056709
975.449100 2.338456
975.691200 -0.105403
975.933300 2.853698
976.175500 -3.234517
976.417600 0.052022
976.659700 -0.441091
976.901900 0.976280
977.144000 0.021426
977.386200 0.072977
977.628300 0.255504
977.870500 0.159246
978.112700 -0.014287
978.354900 -0.107687
978.597100 2.975891
978.839300 0.029578
979.081500 0.072702
979.323700 -2.819544
979.565900 2.663701
979.808200 3.265290
980.050400 0.406798
980.292600 0.336502
980.534900 0.221849
980.777100 2.971276
981.019400 0.026089
981.261700 3.201124
981.504000 0.177748
981.746200 -1.197477
981.988500 -0.325198
982.230800 0.244399
982.473100 0.222221
982.715500 0.739444
982.957800 0.147094
983.200100 0.170795
983.442400 0.490086
983.684800 0.614649
983.927100 -0.028134
984.169500 -0.031607
984.411800 -0.179880
984.654200 -0.158132
984.896600 0.962211
985.139000 1.230449
985.381400 0.022344
985.623800 0.427022
985.866200 -0.019468
986.108600 -2.652246
986.351000 0.437659
986.593400 2.820201
986.835800 0.202684
987.078300 2.682145
987.320700 2.940516
987.563200 -0.366367
987.805600 -0.710508
988.048100 3.189209
988.290600 0.715100
988.533100 0.000000
988.775600 0.147311
989.018000 3.115278
989.260500 0.116013
989.503100 -2.120574
989.745600 2.123852
989.988100 -2.709270
990.230600 0.238466
990.473200 2.935507
990.715700 0.017879
990.958200 -0.011548
991.200800 -0.394174
991.443400 -2.045323
991.685900 -0.033392
991.928500 0.000000
992.171100 -0.601305
992.413700 -0.039141
992.656300 -0.083351
992.898900 2.866287
993.141500 3.078457
993.384100 3.021603
993.626700 -0.031709
993.869400 2.760422
994.112000 2.806180
994.354700 3.165244
994.597300 0.984872
994.840000 -2.608526
995.082600 0.189972
995.325300 -0.637898
995.568000 1.469822
995.810700 2.127105
996.053400 0.452988
996.296100 2.827369
996.538800 -0.339408
996.781500 3.171141
997.024200 -0.770326
997.267000 0.139444
997.509700 1.232431
997.752400 0.183177
997.995200 -0.256771
998.237900 0.049322
998.480700 -0.117753
998.723500 -2.805501
998.966200 -0.060865
999.209000 -0.698970
999.451800 3.003891
999.694600 0.008682
999.937400 -0.966818
1000.180200 2.913284
1000.423000 3.101403
1000.665900 2.907949
1000.908700 -0.638028
1001.151500 2.028571
1001.394400 -0.088072
1001.637200 3.078457
1001.880100 -1.060698
1002.123000 2.840106
1002.365800 -0.307528
1002.608700 2.357935
1002.851600 2.913284
1003.094500 -0.018127
1003.337400 -0.434762
1003.580300 -2.334454
1003.823200 2.414973
1004.066100 -0.266493
1004.309100 -0.392267
1004.552000 -0.058471
1004.794900 2.847573
1005.037900 3.129368
1005.280800 2.806180
1005.523800 1.344705
1005.766700 -0.320584
1006.009700 0.356193
1006.252700 -2.940018
1006.495700 2.812913
1006.738700 -2.507856
1006.981700 0.110371
1007.224700 2.653213
1007.467700 2.008600
1007.710700 0.565337
1007.953800 0.120413
1008.196800 -0.346030
1008.439800 0.420100
1008.682900 2.691965
1008.925900 3.097604
1009.169000 2.884229
1009.412100 -2.631444
1009.655100 1.309630
1009.898200 1.693253
1010.141300 2.432969
1010.384400 3.012837
1010.627500 2.550228
1010.870600 3.165244
1011.113700 3.086360
1011.356800 0.981352
1011.600000 1.591065
1011.843100 0.458857
1012.086300 -2.970347
1012.329400 0.372117
1012.572600 0.000000
1012.815700 -0.341578
1013.058900 -2.895423
1013.302100 0.132318
1013.545200 1.006704
1013.788400 3.108227
1014.031600 0.000000
1014.274800 0.216044
1014.518000 1.041393
1014.761300 3.177536
1015.004500 0.000000
1015.247700 1.259275
1015.490900 -2.376577
1015.734200 0.027346
1015.977400 2.450249
1016.220700 -2.672098
1016.464000 2.853090
1016.707200 -0.536396
1016.950500 2.378398
1017.193800 -0.032070
1017.437100 2.562293
1017.680400 -0.259592
1017.923700 2.975891
1018.167000 -0.102528
1018.410300 2.643453
1018.653600 -0.281532
1018.896900 3.021603
1019.140300 3.030195
1019.383600 0.286181
1019.627000 -0.338737
1019.870300 -0.551650
1020.113700 0.288132
1020.357100 2.575188
1020.600400 0.048197
1020.843800 0.284757
1021.087200 0.122182
1021.330600 -2.759668
1021.574000 -0.081512
1021.817400 -2.240549
1022.060800 -2.929419
1022.304200 0.000000
1022.547700 1.063154
1022.791100 1.017996
1023.034500 2.812913
