# Wavelength	Absorbance
197.780200 0.181292
197.984200 2.907949
198.188200 0.194499
198.392200 2.682145
198.596300 0.342221
198.800300 2.318063
199.004400 0.080966
199.208500 2.866287
199.412600 -0.276761
199.616800 2.768638
199.820900 -0.571645
200.025100 2.877947
200.229200 -0.080175
200.433400 0.171012
200.637600 -0.079051
200.841800 2.902003
201.046100 0.120983
201.250300 3.142702
201.454600 0.796011
201.658900 0.175513
201.863100 -0.281935
202.067400 2.760422
202.271800 0.183147
202.476100 2.896526
202.680500 2.827369
202.884800 2.980458
203.089200 0.147011
203.293600 -0.274872
203.498000 2.913284
203.702400 2.336460
203.906900 -1.195383
204.111300 -2.863323
204.315800 -0.450911
204.520300 0.252725
204.724800 0.099160
204.929300 2.396199
205.133800 0.635890
205.338400 0.025017
205.543000 0.682883
205.747500 -0.291445
205.952100 1.051328
206.156700 0.042075
206.361400 -1.518514
206.566000 -0.329675
206.770600 0.710321
206.975300 2.294466
207.180000 -1.919825
207.384700 -0.236415
207.589400 -2.071882
207.794100 -0.855451
207.998900 -0.470156
208.203600 0.727407
208.408400 0.095172
208.613200 0.939388
208.818000 -0.299640
209.022800 -0.558616
209.227600 -0.451640
209.432500 2.907949
209.637300 -0.180164
209.842200 2.294466
210.047100 -0.144844
210.252000 2.053078
210.456900 -0.054776
210.661800 0.018350
210.866800 0.715662
211.071800 -0.136810
211.276700 1.389435
211.481700 -0.058788
211.686700 -0.481486
211.891800 -0.463488
212.096800 0.353084
212.301800 0.095236
212.506900 0.531265
212.712000 0.576506
212.917100 3.226342
213.122200 2.866287
213.327300 0.310268
213.532500 -2.143015
213.737600 2.985426
213.942800 1.447158
214.148000 1.112930
214.353200 -2.875640
214.558400 -0.391942
214.763600 1.384476
214.968900 -0.294645
215.174100 -0.092518
215.379400 -3.077004
215.584700 -0.028685
215.790000 -0.369509
215.995300 0.204251
216.200700 -0.328316
216.406000 -0.099731
216.611400 -0.005575
216.816800 2.833784
217.022200 -0.398770
217.227600 3.086360
217.433000 2.536558
217.638400 3.047275
217.843900 1.621522
218.049400 -2.899273
218.254800 3.275081
218.460300 3.008600
218.665900 0.264468
218.871400 0.383871
219.076900 0.091066
219.282500 2.960946
219.488100 3.047275
219.693600 2.783904
219.899200 0.809759
220.104900 -0.044302
220.310500 -0.910936
220.516100 -2.678518
220.721800 -0.414076
220.927500 0.260913
221.133200 0.332629
221.338900 0.697883
221.544600 -0.383749
221.750300 3.183555
221.956100 -0.161887
222.161800 -0.615303
222.367600 0.148361
222.573400 -0.219870
222.779200 -2.348305
222.985000 -2.795185
223.190900 3.017451
223.396700 1.541995
223.602600 2.632457
223.808500 2.736397
224.014400 0.710683
224.220300 2.935507
224.426200 2.719331
224.632200 -0.357392
224.838100 0.252931
225.044100 0.109144
225.250100 -0.701410
225.456100 2.653213
225.662100 -0.540729
225.868100 -0.551414
226.074200 -0.592852
226.280200 -2.932981
226.486300 0.498650
226.692400 -3.053463
226.898500 0.557335
227.104600 -0.742562
227.310700 0.224317
227.516900 0.761902
227.723000 -0.843076
227.929200 0.175849
228.135400 -0.161217
228.341600 2.622214
228.547800 0.619676
228.754100 3.003891
228.960300 -1.026329
229.166600 0.000000
229.372900 0.314662
229.579100 2.683047
229.785500 2.791691
229.991800 -2.468769
230.198100 2.682145
230.404500 1.963788
230.610800 0.698540
230.817200 0.000000
231.023600 0.501255
231.230000 -0.345524
231.436400 0.314700
231.642900 -0.409251
231.849300 0.333809
232.055800 -0.890673
232.262300 0.642633
232.468800 -0.904281
232.675300 -0.093617
232.881800 0.395763
233.088400 -0.490958
233.294900 2.550228
233.501500 2.902003
233.708100 -2.143015
233.914700 0.032445
234.121300 0.000000
234.327900 2.776701
234.534600 2.682145
234.741300 3.097604
234.947900 -0.207098
235.154600 0.360876
235.361300 0.774239
235.568000 0.764337
235.774800 2.662758
235.981500 0.045097
236.188300 -3.167022
236.395100 2.999565
236.601800 -1.986772
236.808700 -0.084377
237.015500 -0.223838
237.222300 -0.231235
237.429200 0.807408
237.636000 -0.187735
237.842900 1.851258
238.049800 -0.003652
238.256700 0.772399
238.463600 -0.241588
238.670600 2.970812
238.877500 0.337841
239.084500 0.000000
239.291500 -0.133873
239.498500 2.245513
239.705500 0.571571
239.912500 -1.098396
240.119500 -0.925754
240.326600 2.190332
240.533700 -1.079181
240.740700 -0.609528
240.947800 0.397053
241.154900 0.570634
241.362100 -0.064960
241.569200 2.632457
241.776400 0.025541
241.983500 0.478552
242.190700 -0.115807
242.397900 0.000000
242.605100 2.537819
242.812400 -0.674265
243.019600 3.242293
243.226900 -0.309829
243.434100 -0.574279
243.641400 -0.114250
243.848700 -0.056461
244.056000 -3.469380
244.263400 -0.366734
244.470700 0.317862
244.678100 0.624544
244.885400 2.945469
245.092800 -0.193495
245.300200 2.357935
245.507600 0.872126
245.715100 3.034628
245.922500 0.310957
246.130000 -1.484718
246.337500 3.183555
246.544900 2.396199
246.752400 0.818791
246.960000 3.165244
247.167500 0.352050
247.375000 -2.257679
247.582600 3.025715
247.790200 1.845098
247.997800 -0.035737
248.205400 0.873759
248.413000 -0.049467
248.620600 2.727541
248.828300 0.122228
249.035900 -0.006428
249.243600 2.014591
249.451300 0.623431
249.659000 0.803401
249.866700 3.168203
250.074500 -0.035634
250.282200 0.136028
250.490000 0.067843
250.697800 2.846955
250.905600 -0.135943
251.113400 -0.155004
251.321200 1.217883
251.529000 2.008600
251.736900 -0.206099
251.944700 3.186674
252.152600 -0.074587
252.360500 2.710117
252.568400 2.662758
252.776300 -0.701741
252.984300 -0.008622
253.192200 2.985426
253.400200 0.237774
253.608200 -0.059082
253.816200 0.205391
254.024200 -0.081021
254.232200 -0.154401
254.440200 -2.424882
254.648300 -0.068211
254.856400 2.701568
255.064400 0.427669
255.272500 0.839926
255.480600 0.131239
255.688800 0.000000
255.896900 -0.211103
256.105100 0.099623
256.313200 0.208748
256.521400 0.094976
256.729600 -0.236261
256.937800 3.171434
257.146000 1.383489
257.354300 -2.837588
257.562500 1.000000
257.770800 0.000000
257.979100 1.208574
258.187400 -0.203244
258.395700 1.096014
258.604000 0.135355
258.812400 -0.187792
259.020700 0.456751
259.229100 0.456282
259.437500 0.138303
259.645900 0.224793
259.854300 2.878522
260.062700 0.214857
260.271100 -0.322318
260.479600 0.164624
260.688100 2.562293
260.896500 0.995174
261.105000 2.089905
261.313500 -0.278097
261.522100 3.142702
261.730600 0.640609
261.939200 2.701568
262.147700 -0.246139
262.356300 0.396770
262.564900 2.536558
262.773500 -0.112535
262.982200 3.198382
263.190800 -2.389166
263.399500 2.127645
263.608100 -0.030281
263.816800 1.047857
264.025500 -0.427926
264.234200 2.158362
264.442900 -0.900681
264.651700 0.639722
264.860400 -0.086205
265.069200 -0.134106
265.278000 0.139693
265.486800 0.002302
265.695600 2.450249
265.904400 0.313362
266.113300 -0.401851
266.322100 0.859213
266.531000 -0.688709
266.739900 -1.005912
266.948800 3.125806
267.157700 2.884795
267.366600 3.055378
267.575500 -0.193213
267.784500 2.550228
267.993500 0.450689
268.202400 -0.021742
268.411400 0.099396
268.620500 -0.019141
268.829500 -0.301030
269.038500 -0.775422
269.247600 0.191202
269.456600 -1.028428
269.665700 0.200749
269.874800 2.907411
270.083900 0.141329
270.293100 -3.318272
270.502200 -0.050305
270.711400 2.127105
270.920500 0.528433
271.129700 -0.099507
271.338900 0.499660
271.548100 -0.183675
271.757300 -0.069486
271.966600 0.542116
272.175800 3.277609
272.385100 3.132580
272.594400 -0.220360
272.803700 3.021603
273.013000 0.102111
273.222300 0.357267
273.431600 3.165244
273.641000 0.208049
273.850400 0.558553
274.059700 -0.146409
274.269100 0.124581
274.478500 0.381478
274.688000 0.403237
274.897400 -0.390671
275.106900 -1.233061
275.316300 0.091591
275.525800 3.067071
275.735300 -2.899273
275.944800 0.421604
276.154300 -0.117559
276.363900 -0.212472
276.573400 2.840106
276.783000 -0.111332
276.992600 -0.016368
277.202200 -0.204363
277.411800 -0.632135
277.621400 0.338375
277.831000 3.118595
278.040700 3.177536
278.250300 0.204251
278.460000 0.111381
278.669700 2.980458
278.879400 -0.331954
279.089100 1.612784
279.298900 0.270965
279.508600 1.038944
279.718400 3.272770
279.928100 -2.615950
280.137900 1.475010
280.347700 0.115261
280.557600 0.027965
280.767400 0.967135
280.977200 0.021510
281.187100 -2.593286
281.397000 1.209092
281.606900 -2.143015
281.816800 -0.020898
282.026700 2.357935
282.236600 -0.066731
282.446600 0.781264
282.656500 -1.518514
282.866500 0.443386
283.076500 -0.205612
283.286500 3.115278
283.496500 -0.038698
283.706500 0.056765
283.916600 2.866287
284.126600 -2.054175
284.336700 -0.285496
284.546800 0.162829
284.756900 3.025715
284.967000 0.327152
285.177100 0.109988
285.387300 0.000000
285.597400 0.945151
285.807600 -0.262061
286.017800 0.139822
286.228000 -3.160769
286.438200 -0.137983
286.648400 0.041243
286.858700 3.265290
287.068900 -0.004501
287.279200 -0.320066
287.489500 -0.528521
287.699800 0.734084
287.910100 2.621176
288.120400 3.047275
288.330800 -0.544815
288.541100 0.502308
288.751500 -0.633162
288.961900 -0.206366
289.172300 0.000000
289.382700 0.121057
289.593100 -0.123744
289.803500 -2.658965
290.014000 0.591292
290.224500 0.235059
290.434900 -2.824126
290.645400 -0.149077
290.855900 -0.257412
291.066500 0.350943
291.277000 0.227097
291.487500 2.768638
291.698100 2.768638
291.908700 -0.426466
292.119300 0.022157
292.329900 3.042969
292.540500 -0.419632
292.751100 2.956168
292.961800 -3.053463
293.172400 1.184662
293.383100 -2.748963
293.593800 2.994757
293.804500 -0.328581
294.015200 0.776338
294.226000 -2.593286
294.436700 2.799341
294.647500 2.866287
294.858200 0.199177
295.069000 3.055378
295.279800 -0.370474
295.490600 -2.748963
295.701500 0.235059
295.912300 0.129026
296.123200 0.093304
296.334000 2.719331
296.544900 0.492683
296.755800 1.702378
296.966700 -0.015461
297.177700 2.945961
297.388600 -0.185900
297.599500 2.269513
297.810500 0.061687
298.021500 0.273579
298.232500 0.477121
298.443500 1.690196
298.654500 0.049784
298.865600 0.080483
299.076600 -0.075015
299.287700 -2.517196
299.498800 0.376998
299.709900 2.902003
299.921000 0.003813
300.132100 0.494552
300.343200 3.270446
300.554400 2.769377
300.765500 2.853698
300.976700 -1.986772
301.187900 0.241164
301.399100 0.670566
301.610300 0.612172
301.821500 1.377967
302.032800 3.104487
302.244100 0.154128
302.455300 -0.270497
302.666600 3.063333
302.877900 3.226342
303.089200 2.357935
303.300600 -0.047175
303.511900 -0.214447
303.723300 2.924279
303.934600 -0.002822
304.146000 -2.018225
304.357400 2.432969
304.568800 -0.164192
304.780300 3.192289
304.991700 -0.078706
305.203100 -0.855911
305.414600 1.317569
305.626100 -0.707267
305.837600 -0.089801
306.049100 -0.261054
306.260600 3.051153
306.472200 2.245513
306.683700 -0.330731
306.895300 -0.262401
307.106900 0.572760
307.318400 0.135355
307.530100 0.172691
307.741700 0.236806
307.953300 0.262938
308.165000 -3.037028
308.376600 0.050976
308.588300 0.213722
308.800000 3.034227
309.011700 0.351786
309.223400 -0.155681
309.435100 -0.264918
309.646900 2.840106
309.858600 0.665830
310.070400 0.611849
310.282200 1.447158
310.494000 -0.084861
310.705800 3.168203
310.917600 0.036128
311.129500 2.840106
311.341300 0.161950
311.553200 0.206823
311.765100 1.398887
311.977000 3.142702
312.188900 -0.279546
312.400800 0.010653
312.612700 3.012837
312.824700 3.292034
313.036600 -0.032206
313.248600 0.814838
313.460600 0.284398
313.672600 3.275081
313.884600 3.086360
314.096700 0.719069
314.308700 0.726999
314.520800 3.104828
314.732800 0.229591
314.944900 0.192368
315.157000 0.613896
315.369200 2.003604
315.581300 -0.208139
315.793400 2.653213
316.005600 0.350702
316.217700 3.168203
316.429900 0.404272
316.642100 1.096321
316.854300 0.218132
317.066600 3.463445
317.278800 0.355687
317.491100 0.397104
317.703300 3.336260
317.915600 0.433123
318.127900 0.015523
318.340200 0.060576
318.552500 0.148402
318.764900 1.258436
318.977200 0.309840
319.189600 0.681890
319.401900 0.494343
319.614300 3.245019
319.826700 0.886937
320.039200 3.358886
320.251600 0.310859
320.464000 0.425635
320.676500 0.062257
320.889000 -0.527171
321.101400 0.134575
321.313900 0.740894
321.526500 0.496853
321.739000 0.465953
321.951500 0.167981
322.164100 3.132580
322.376600 3.460447
322.589200 3.362859
322.801800 0.274305
323.014400 0.427991
323.227000 0.589953
323.439700 0.979552
323.652300 0.647166
323.865000 1.026443
324.077700 1.252757
324.290400 3.310268
324.503100 3.378580
324.715800 0.425565
324.928500 0.515073
325.141200 3.384174
325.354000 0.498832
325.566800 0.820501
325.779600 3.531990
325.992400 3.314710
326.205200 0.643303
326.418000 0.957166
326.630800 0.446999
326.843700 0.412752
327.056600 0.386629
327.269400 1.273958
327.482300 0.681343
327.695200 1.181844
327.908200 0.272362
328.121100 3.453930
328.334000 0.730000
328.547000 0.599661
328.760000 0.737777
328.973000 0.741394
329.186000 0.713665
329.399000 0.523709
329.612000 0.567684
329.825100 0.891867
330.038100 0.442164
330.251200 3.572872
330.464300 3.658298
330.677400 3.635484
330.890500 0.654718
331.103600 1.322349
331.316700 1.655198
331.529900 1.169747
331.743100 0.288311
331.956200 0.488153
332.169400 3.577836
332.382600 0.610252
332.595900 0.945415
332.809100 1.461751
333.022300 3.595606
333.235600 3.633468
333.448900 1.197353
333.662200 0.502510
333.875500 0.901408
334.088800 0.753328
334.302100 0.841247
334.515400 0.461831
334.728800 0.944641
334.942200 0.513013
335.155500 0.680967
335.368900 1.140914
335.582300 0.571581
335.795800 0.826322
336.009200 0.481847
336.222700 3.666237
336.436100 1.336092
336.649600 0.985717
336.863100 0.960886
337.076600 0.750007
337.290100 3.741388
337.503600 0.480926
337.717200 1.370124
337.930700 3.722716
338.144300 0.735714
338.357900 1.139094
338.571500 1.171601
338.785100 1.499085
338.998700 3.739731
339.212400 3.815312
339.426000 3.712144
339.639700 1.209384
339.853300 0.822100
340.067000 0.808407
340.280700 0.811834
340.494500 0.610809
340.708200 0.921417
340.921900 3.796644
341.135700 0.713935
341.349500 3.731266
341.563300 2.041464
341.777100 1.560415
341.990900 0.474948
342.204700 1.200092
342.418500 0.597390
342.632400 1.758578
342.846300 1.414282
343.060100 3.693023
343.274000 0.763584
343.487900 0.996108
343.701900 0.931862
343.915800 0.809847
344.129700 3.873611
344.343700 3.778006
344.557700 1.011189
344.771700 0.946371
344.985700 0.554287
345.199700 1.024252
345.413700 0.888967
345.627700 1.711450
345.841800 2.130158
346.055900 0.910629
346.269900 1.119682
346.484000 3.898615
346.698100 3.825686
346.912300 1.592661
347.126400 0.596594
347.340600 1.166770
347.554700 0.507235
347.768900 3.886321
347.983100 0.781289
348.197300 3.889246
348.411500 0.897696
348.625700 3.866760
348.840000 1.220097
349.054200 1.501203
349.268500 3.952889
349.482800 3.888011
349.697100 3.921634
349.911400 0.808534
350.125700 1.011298
350.340000 1.015663
350.554400 3.966001
350.768700 3.912806
350.983100 3.917820
351.197500 3.889246
351.411900 1.085164
351.626300 3.954918
351.840700 1.182715
352.055200 1.626615
352.269600 0.607288
352.484100 3.950851
352.698600 3.990072
352.913100 3.896857
353.127600 1.314830
353.342100 3.948266
353.556600 0.809454
353.771200 4.007534
353.985800 1.092997
354.200300 0.630520
354.414900 2.240731
354.629500 3.907143
354.844100 0.909340
355.058800 0.780707
355.273400 3.971369
355.488100 2.470624
355.702700 0.755414
355.917400 1.952148
356.132100 0.930594
356.346800 0.691075
356.561500 1.128724
356.776300 1.277098
356.991000 1.020716
357.205800 3.987264
357.420600 3.988202
357.635300 1.049064
357.850100 4.018617
358.065000 3.991935
358.279800 1.387263
358.494600 3.959995
358.709500 1.001732
358.924300 3.975799
359.139200 0.884792
359.354100 2.107389
359.569000 1.463466
359.783900 0.933801
359.998900 3.957464
360.213800 4.019947
360.428800 1.044046
360.643800 1.217574
360.858700 3.960946
361.073700 1.076260
361.288800 1.191496
361.503800 4.026452
361.718800 3.995196
361.933900 1.294156
362.148900 1.627700
362.364000 3.994713
362.579100 1.604963
362.794200 1.103713
363.009300 4.072250
363.224500 1.220974
363.439600 0.701648
363.654800 4.034989
363.869900 1.885150
364.085100 4.019947
364.300300 0.941383
364.515500 4.049102
364.730800 0.955975
364.946000 4.055608
365.161200 0.771634
365.376500 1.697194
365.591800 1.289882
365.807100 4.020403
366.022400 1.359218
366.237700 4.078022
366.453000 1.813211
366.668400 4.089375
366.883700 0.849320
367.099100 1.345228
367.314500 1.696802
367.529900 1.653649
367.745300 4.114678
367.960700 4.089375
368.176100 1.477121
368.391600 4.101850
368.607000 1.339120
368.822500 1.110167
369.038000 1.401210
369.253500 1.023401
369.469000 1.024040
369.684500 4.136974
369.900100 1.177198
370.115600 4.067926
370.331200 0.990977
370.546800 2.117237
370.762400 1.187771
370.978000 1.270401
371.193600 0.925086
371.409200 0.964029
371.624900 1.297386
371.840500 2.038114
372.056200 0.932556
372.271900 1.403899
372.487600 1.415260
372.703300 1.009013
372.919000 1.977263
373.134800 1.227046
373.350500 0.992499
373.566300 4.154637
373.782000 0.975450
373.997800 1.744616
374.213600 1.292297
374.429400 1.909934
374.645300 1.687711
374.861100 1.418354
375.077000 1.495505
375.292800 4.182329
375.508700 1.447318
375.724600 1.025327
375.940500 1.141400
376.156400 2.152573
376.372400 4.242367
376.588300 1.453744
376.804300 0.862729
377.020300 1.467263
377.236200 1.130573
377.452200 1.610852
377.668200 1.082355
377.884300 1.384718
378.100300 4.253265
378.316400 1.157383
378.532400 1.555861
378.748500 4.301356
378.964600 1.267129
379.180700 4.308394
379.396800 1.430571
379.612900 1.482677
379.829100 1.117222
380.045200 1.461634
380.261400 1.296045
380.477600 1.443445
380.693800 0.969885
380.910000 3.261956
381.126200 1.194805
381.342400 1.587565
381.558700 1.312122
381.774900 4.288607
381.991200 1.267290
382.207500 4.314668
382.423800 1.590091
382.640100 1.272255
382.856400 1.465696
383.072800 4.319502
383.289100 2.146922
383.505500 2.263576
383.721900 1.281144
383.938200 1.914590
384.154600 1.494453
384.371100 4.337779
384.587500 1.188023
384.803900 1.239137
385.020400 0.999292
385.236800 1.336385
385.453300 1.659141
385.669800 4.340702
385.886300 1.645577
386.102800 1.484480
386.319400 1.361958
386.535900 1.318510
386.752500 2.401809
386.969000 1.530084
387.185600 0.911875
387.402200 1.426620
387.618800 1.408019
387.835500 1.303987
388.052100 1.150784
388.268700 4.405654
388.485400 3.323579
388.702100 1.133419
388.918800 1.391234
389.135500 1.293292
389.352200 1.308013
389.568900 1.315127
389.785600 1.334363
390.002400 1.224426
390.219200 1.455227
390.435900 1.088195
390.652700 1.098360
390.869500 1.539447
391.086300 0.964486
391.303200 1.361519
391.520000 1.084461
391.736900 0.979727
391.953700 1.951019
392.170600 1.149461
392.387500 1.089547
392.604400 0.870273
392.821300 1.041261
393.038300 0.914410
393.255200 1.027896
393.472200 1.327366
393.689100 0.790150
393.906100 1.058814
394.123100 0.877787
394.340100 1.072886
394.557200 1.005070
394.774200 1.267634
394.991200 0.678304
395.208300 0.870191
395.425400 0.713498
395.642500 0.888814
395.859600 0.870513
396.076700 0.823829
396.293800 0.691572
396.510900 0.946167
396.728100 0.711571
396.945300 0.814476
397.162400 0.832739
397.379600 0.775666
397.596800 0.760739
397.814000 0.695378
398.031300 0.791784
398.248500 0.707849
398.465800 0.778802
398.683000 0.743630
398.900300 0.649688
399.117600 0.795452
399.334900 0.628298
399.552200 0.672169
399.769600 0.677713
399.986900 0.703249
400.204300 0.662913
400.421600 0.570972
400.639000 0.660478
400.856400 0.623998
401.073800 0.656036
401.291200 0.738398
401.508700 0.656908
401.726100 0.628198
401.943600 0.630135
402.161000 0.667634
402.378500 0.594398
402.596000 0.555536
402.813500 0.579342
403.031000 0.576018
403.248600 0.666377
403.466100 0.572145
403.683700 0.581430
403.901300 0.605665
404.118900 0.593443
404.336500 0.568492
404.554100 0.539848
404.771700 0.548794
404.989300 0.532277
405.207000 0.532722
405.424600 0.471229
405.642300 0.538377
405.860000 0.489480
406.077700 0.469673
406.295400 0.542042
406.513100 0.499501
406.730900 0.468713
406.948600 0.469287
407.166400 0.487868
407.384200 0.460207
407.602000 0.469398
407.819800 0.443476
408.037600 0.520456
408.255400 0.440694
408.473300 0.475264
408.691100 0.450346
408.909000 0.474099
409.126900 0.418401
409.344800 0.459885
409.562700 0.486667
409.780600 0.416538
409.998500 0.450040
410.216500 0.387555
410.434400 0.432952
410.652400 0.376698
410.870400 0.398934
411.088400 0.379546
411.306400 0.395637
411.524400 0.424905
411.742400 0.408805
411.960500 0.354032
412.178500 0.316106
412.396600 0.382779
412.614700 0.369279
412.832800 0.395809
413.050900 0.360975
413.269000 0.429952
413.487100 0.389848
413.705300 0.375768
413.923400 0.419161
414.141600 0.390483
414.359800 0.344189
414.578000 0.354630
414.796200 0.343177
415.014400 0.381876
415.232600 0.305649
415.450900 0.299640
415.669200 0.334895
415.887400 0.391782
416.105700 0.344794
416.324000 0.357718
416.542300 0.372895
416.760600 0.328040
416.979000 0.366322
417.197300 0.359439
417.415700 0.280706
417.634100 0.325155
417.852400 0.367296
418.070800 0.313666
418.289300 0.314647
418.507700 0.321010
418.726100 0.345991
418.944600 0.293166
419.163000 0.320829
419.381500 0.308523
419.600000 0.331766
419.818500 0.306807
420.037000 0.286540
420.255500 0.275414
420.474100 0.291641
420.692600 0.294603
420.911200 0.289126
421.129800 0.316677
421.348300 0.273364
421.566900 0.301486
421.785600 0.318848
422.004200 0.302069
422.222800 0.280484
422.441500 0.336384
422.660100 0.288436
422.878800 0.288838
423.097500 0.265038
423.316200 0.270305
423.534900 0.296479
423.753600 0.276051
423.972400 0.237891
424.191100 0.282211
424.409900 0.265864
424.628700 0.257816
424.847500 0.276505
425.066300 0.317355
425.285100 0.270381
425.503900 0.251351
425.722800 0.270394
425.941600 0.295297
426.160500 0.260725
426.379300 0.233070
426.598200 0.280115
426.817100 0.260670
427.036100 0.268915
427.255000 0.265181
427.473900 0.295986
427.692900 0.276857
427.911800 0.280547
428.130800 0.249824
428.349800 0.251313
428.568800 0.228219
428.787800 0.228091
429.006800 0.250573
429.225900 0.294526
429.444900 0.323968
429.664000 0.233108
429.883100 0.308820
430.102200 0.256378
430.321300 0.267738
430.540400 0.239924
430.759500 0.245396
430.978700 0.219532
431.197800 0.292060
431.417000 0.249318
431.636200 0.254795
431.855300 0.275913
432.074500 0.228784
432.293800 0.271597
432.513000 0.280908
432.732200 0.223176
432.951500 0.290302
433.170700 0.254063
433.390000 0.225178
433.609300 0.250800
433.828600 0.263506
434.047900 0.271162
434.267300 0.322228
434.486600 0.259610
434.705900 0.241911
434.925300 0.311510
435.144700 0.255623
435.364100 0.248713
435.583500 0.257712
435.802900 0.250831
436.022300 0.219163
436.241800 0.276399
436.461200 0.260362
436.680700 0.292600
436.900100 0.265233
437.119600 0.263695
437.339100 0.244205
437.558600 0.231827
437.778200 0.280851
437.997700 0.261139
438.217300 0.242759
438.436800 0.263001
438.656400 0.300078
438.876000 0.232317
439.095600 0.241712
439.315200 0.293792
439.534800 0.260611
439.754500 0.251974
439.974100 0.290492
440.193800 0.296269
440.413500 0.264951
440.633100 0.260578
440.852800 0.284702
441.072500 0.279665
441.292300 0.265081
441.512000 0.297181
441.731800 0.270280
441.951500 0.304955
442.171300 0.275837
442.391100 0.254757
442.610900 0.289069
442.830700 0.301836
443.050500 0.277504
443.270300 0.306942
443.490200 0.281154
443.710100 0.279371
443.929900 0.339896
444.149800 0.295957
444.369700 0.303619
444.589600 0.279157
444.809500 0.342946
445.029500 0.321208
445.249400 0.303546
445.469400 0.326055
445.689400 0.279516
445.909300 0.275950
446.129300 0.277526
446.349300 0.345302
446.569400 0.335812
446.789400 0.330612
447.009400 0.312305
447.229500 0.317004
447.449600 0.327701
447.669600 0.336795
447.889700 0.319829
448.109800 0.288144
448.330000 0.313595
448.550100 0.345002
448.770200 0.315246
448.990400 0.321305
449.210600 0.355848
449.430700 0.341249
449.650900 0.325055
449.871100 0.326722
450.091400 0.340375
450.311600 0.342551
450.531800 0.318290
450.752100 0.327083
450.972400 0.310101
451.192600 0.354251
451.412900 0.350415
451.633200 0.339347
451.853500 0.388499
452.073900 0.338092
452.294200 0.404159
452.514600 0.385845
452.734900 0.361797
452.955300 0.377103
453.175700 0.368733
453.396100 0.365958
453.616500 0.351445
453.836900 0.355664
454.057400 0.393288
454.277800 0.344915
454.498300 0.410474
454.718800 0.394042
454.939300 0.365654
455.159700 0.422175
455.380300 0.426233
455.600800 0.369998
455.821300 0.408812
456.041900 0.397320
456.262400 0.408901
456.483000 0.380561
456.703600 0.389840
456.924200 0.423591
457.144800 0.419014
457.365400 0.406905
457.586000 0.389120
457.806700 0.438531
458.027400 0.429067
458.248000 0.401907
458.468700 0.421519
458.689400 0.395399
458.910100 0.439647
459.130800 0.472420
459.351600 0.443759
459.572300 0.444281
459.793100 0.443352
460.013800 0.423913
460.234600 0.520166
460.455400 0.407922
460.676200 0.462379
460.897000 0.432054
461.117800 0.443832
461.338700 0.426937
461.559500 0.496031
461.780400 0.470977
462.001300 0.472100
462.222200 0.440754
462.443100 0.534799
462.664000 0.467259
462.884900 0.438474
463.105900 0.489714
463.326800 0.535231
463.547800 0.533562
463.768700 0.452384
463.989700 0.490700
464.210700 0.520059
464.431700 0.517147
464.652800 0.524761
464.873800 0.515832
465.094800 0.550551
465.315900 0.543580
465.537000 0.547406
465.758100 0.541671
465.979200 0.535614
466.200300 0.545883
466.421400 0.468693
466.642500 0.544268
466.863700 0.598897
467.084800 0.564485
467.306000 0.624886
467.527200 0.577636
467.748400 0.602887
467.969600 0.620713
468.190800 0.623506
468.412000 0.616063
468.633300 0.604258
468.854500 0.596401
469.075800 0.618145
469.297000 0.595194
469.518300 0.604830
469.739600 0.679136
469.961000 0.623091
470.182300 0.676127
470.403600 0.620293
470.625000 0.581682
470.846300 0.590173
471.067700 0.618334
471.289100 0.635967
471.510500 0.625685
471.731900 0.601219
471.953300 0.669232
472.174800 0.666865
472.396200 0.690863
472.617700 0.758789
472.839100 0.707001
473.060600 0.764420
473.282100 0.686654
473.503600 0.697884
473.725100 0.795990
473.946700 0.728638
474.168200 0.653550
474.389800 0.765848
474.611300 0.710154
474.832900 0.729833
475.054500 0.749696
475.276100 0.755587
475.497700 0.682123
475.719300 0.802112
475.941000 0.732166
476.162600 0.761151
476.384300 0.731667
476.606000 0.702731
476.827700 0.745464
477.049400 0.793397
477.271100 0.766901
477.492800 0.765768
477.714500 0.804523
477.936300 0.700035
478.158000 0.806098
478.379800 0.802827
478.601600 0.774562
478.823400 0.846075
479.045200 0.768728
479.267000 0.807361
479.488800 0.978947
479.710700 0.779203
479.932500 0.854633
480.154400 0.915835
480.376300 0.755803
480.598200 0.812729
480.820100 0.860565
481.042000 0.880128
481.263900 0.819033
481.485900 0.832656
481.707800 0.829819
481.929800 0.923177
482.151700 0.933194
482.373700 0.927812
482.595700 0.765117
482.817700 0.854122
483.039800 0.915550
483.261800 0.861220
483.483800 0.914769
483.705900 1.042371
483.928000 0.931382
484.150100 0.855300
484.372100 0.867664
484.594300 0.864209
484.816400 0.962312
485.038500 0.966790
485.260600 1.038140
485.482800 0.977445
485.705000 0.985058
485.927100 0.958341
486.149300 1.027103
486.371500 0.992019
486.593700 0.979914
486.816000 0.947089
487.038200 0.984046
487.260500 0.993523
487.482700 1.002305
487.705000 1.054764
487.927300 1.004651
488.149600 0.937154
488.371900 0.968081
488.594200 0.969778
488.816500 1.035801
489.038900 0.903098
489.261200 0.940579
489.483600 0.977082
489.706000 1.034875
489.928400 0.981030
490.150800 1.097092
490.373200 1.085404
490.595600 0.982155
490.818000 1.010868
491.040500 1.158013
491.263000 1.073904
491.485400 1.186280
491.707900 0.981324
491.930400 1.091585
492.152900 0.952774
492.375500 1.101527
492.598000 1.081659
492.820500 1.022511
493.043100 1.028092
493.265700 1.095442
493.488200 1.099144
493.710800 1.242084
493.933400 0.928160
494.156100 1.130676
494.378700 1.031639
494.601300 1.142333
494.824000 1.168914
495.046600 1.124423
495.269300 1.143985
495.492000 1.115730
495.714700 0.936105
495.937400 1.166720
496.160100 1.123110
496.382900 0.995979
496.605600 1.135770
496.828400 1.108325
497.051100 1.165196
497.273900 1.100806
497.496700 1.096023
497.719500 1.101836
497.942300 1.113505
498.165200 0.960643
498.388000 1.100515
498.610900 1.138481
498.833700 0.960422
499.056600 1.149605
499.279500 1.023982
499.502400 1.062582
499.725300 1.118875
499.948200 1.150022
500.171200 1.193175
500.394100 1.272827
500.617100 1.432528
500.840000 1.306740
501.063000 1.045428
501.286000 1.260707
501.509000 1.203408
501.732000 1.219483
501.955100 1.300949
502.178100 1.155199
502.401200 1.044834
502.624200 1.391257
502.847300 1.312189
503.070400 1.172409
503.293500 1.123562
503.516600 1.104290
503.739700 1.313048
503.962800 1.140155
504.186000 1.148378
504.409200 1.226891
504.632300 1.157943
504.855500 1.126577
505.078700 1.032041
505.301900 1.300476
505.525100 1.134103
505.748300 1.554574
505.971600 1.480993
506.194800 1.197094
506.418100 1.156990
506.641400 1.497422
506.864700 1.203783
507.088000 1.265634
507.311300 1.053320
507.534600 1.176330
507.757900 1.118017
507.981300 1.308564
508.204600 1.328771
508.428000 1.252991
508.651400 1.041668
508.874800 1.104461
509.098200 1.177983
509.321600 1.314472
509.545000 1.211762
509.768500 1.265668
509.991900 1.267061
510.215400 1.284038
510.438800 1.121841
510.662300 1.013351
510.885800 0.978377
511.109300 1.344129
511.332900 1.153237
511.556400 1.388892
511.779900 1.250460
512.003500 1.209381
512.227000 1.104212
512.450600 1.281993
512.674200 1.029248
512.897800 1.239238
513.121400 1.111042
513.345100 1.246334
513.568700 1.108677
513.792300 1.216673
514.016000 1.077253
514.239700 1.175346
514.463400 1.075809
514.687100 1.150011
514.910800 1.092909
515.134500 1.134759
515.358200 1.045208
515.581900 1.353416
515.805700 1.149726
516.029500 1.106970
516.253200 1.027485
516.477000 1.185796
516.700800 1.608512
516.924600 1.311936
517.148500 1.155516
517.372300 1.225045
517.596100 1.134740
517.820000 1.103360
518.043900 1.139885
518.267700 1.086643
518.491600 1.241530
518.715500 1.134008
518.939500 1.131489
519.163400 1.066497
519.387300 1.020082
519.611300 1.161505
519.835200 0.982197
520.059200 1.225892
520.283200 1.220535
520.507200 1.143770
520.731200 0.996201
520.955200 1.089559
521.179200 1.070352
521.403300 1.063452
521.627300 0.970150
521.851400 1.137131
522.075500 0.972161
522.299600 0.931146
522.523700 0.941851
522.747800 1.226082
522.971900 1.076388
523.196000 1.056605
523.420200 0.852085
523.644300 1.215205
523.868500 1.150698
524.092700 1.111992
524.316900 1.084867
524.541100 1.021195
524.765300 1.224611
524.989500 0.817592
525.213800 1.297247
525.438000 0.934916
525.662300 1.015484
525.886500 0.829275
526.110800 1.045506
526.335100 0.926417
526.559400 1.003518
526.783700 0.799871
527.008100 0.887856
527.232400 0.921783
527.456800 1.018427
527.681100 0.957970
527.905500 0.931134
528.129900 0.774727
528.354300 0.931643
528.578700 0.868870
528.803100 0.848610
529.027600 0.936007
529.252000 0.917792
529.476500 0.806191
529.700900 0.960243
529.925400 0.896076
530.149900 0.864658
530.374400 0.841940
530.598900 0.880201
530.823400 0.869579
531.048000 0.873911
531.272500 0.844951
531.497100 0.984479
531.721700 0.724581
531.946200 0.863530
532.170800 0.824009
532.395400 0.774075
532.620000 0.860101
532.844700 0.871146
533.069300 0.830689
533.294000 0.837551
533.518600 0.715977
533.743300 0.815247
533.968000 0.750436
534.192700 0.761343
534.417400 0.856998
534.642100 0.742152
534.866800 0.759296
535.091600 0.717356
535.316300 0.746010
535.541100 0.795101
535.765900 0.733774
535.990700 0.746162
536.215500 0.757273
536.440300 0.710557
536.665100 0.696127
536.889900 0.782627
537.114800 0.745240
537.339600 0.671579
537.564500 0.711134
537.789400 0.746140
538.014300 0.678071
538.239200 0.716863
538.464100 0.671830
538.689000 0.644743
538.913900 0.605996
539.138900 0.693638
539.363800 0.640340
539.588800 0.626868
539.813800 0.671941
540.038800 0.617244
540.263800 0.659859
540.488800 0.611729
540.713800 0.616681
540.938900 0.633064
541.163900 0.647587
541.389000 0.552999
541.614000 0.614496
541.839100 0.617815
542.064200 0.566706
542.289300 0.576648
542.514400 0.585113
542.739600 0.583581
542.964700 0.541735
543.189900 0.607472
543.415000 0.574197
543.640200 0.523596
543.865400 0.527839
544.090600 0.514910
544.315800 0.524249
544.541000 0.599921
544.766200 0.531025
544.991500 0.552108
545.216700 0.496851
545.442000 0.538142
545.667300 0.512236
545.892600 0.586439
546.117900 0.510514
546.343200 0.542586
546.568500 0.542142
546.793800 0.503229
547.019200 0.513797
547.244500 0.506911
547.469900 0.506622
547.695300 0.472413
547.920600 0.470712
548.146000 0.463109
548.371500 0.464260
548.596900 0.491217
548.822300 0.450861
549.047800 0.491682
549.273200 0.407575
549.498700 0.445061
549.724200 0.423446
549.949600 0.450455
550.175100 0.404402
550.400700 0.394649
550.626200 0.436835
550.851700 0.424300
551.077300 0.405504
551.302800 0.411785
551.528400 0.338126
551.754000 0.365163
551.979600 0.345828
552.205200 0.379034
552.430800 0.416082
552.656400 0.410240
552.882000 0.371693
553.107700 0.391251
553.333300 0.379509
553.559000 0.343903
553.784700 0.361918
554.010400 0.376261
554.236100 0.335192
554.461800 0.359405
554.687500 0.339408
554.913200 0.336720
555.139000 0.356995
555.364800 0.359149
555.590500 0.356406
555.816300 0.296494
556.042100 0.323210
556.267900 0.348413
556.493700 0.339595
556.719500 0.299956
556.945400 0.299333
557.171200 0.309297
557.397100 0.306038
557.623000 0.288754
557.848800 0.311140
558.074700 0.272932
558.300600 0.277803
558.526600 0.284477
558.752500 0.265817
558.978400 0.284325
559.204400 0.236168
559.430300 0.261836
559.656300 0.262944
559.882300 0.256509
560.108300 0.252935
560.334300 0.275090
560.560300 0.247942
560.786300 0.253711
561.012400 0.242786
561.238400 0.244021
561.464500 0.228267
561.690500 0.246498
561.916600 0.224453
562.142700 0.248948
562.368800 0.260117
562.594900 0.226261
562.821100 0.242593
563.047200 0.235126
563.273300 0.218594
563.499500 0.208176
563.725700 0.220881
563.951900 0.188086
564.178100 0.221963
564.404300 0.230957
564.630500 0.220344
564.856700 0.205085
565.082900 0.190444
565.309200 0.204326
565.535500 0.200586
565.761700 0.186497
565.988000 0.182012
566.214300 0.174279
566.440600 0.159869
566.666900 0.182512
566.893200 0.177674
567.119600 0.187721
567.345900 0.191156
567.572300 0.180092
567.798700 0.187545
568.025000 0.156836
568.251400 0.177804
568.477800 0.156165
568.704300 0.162905
568.930700 0.166979
569.157100 0.163117
569.383600 0.149452
569.610000 0.160155
569.836500 0.157088
570.063000 0.144942
570.289500 0.157501
570.516000 0.142681
570.742500 0.139065
570.969000 0.152591
571.195600 0.147560
571.422100 0.134830
571.648700 0.149442
571.875200 0.139037
572.101800 0.142181
572.328400 0.145136
572.555000 0.132986
572.781600 0.139047
573.008200 0.143398
573.234900 0.147046
573.461500 0.137472
573.688200 0.123930
573.914900 0.124180
574.141500 0.116667
574.368200 0.120408
574.594900 0.117113
574.821600 0.117304
575.048400 0.110468
575.275100 0.118372
575.501800 0.122756
575.728600 0.117225
575.955400 0.099915
576.182100 0.112701
576.408900 0.111972
576.635700 0.108997
576.862600 0.102608
577.089400 0.104116
577.316200 0.098733
577.543100 0.105566
577.769900 0.104149
577.996800 0.100793
578.223700 0.102090
578.450500 0.090036
578.677400 0.095064
578.904400 0.093034
579.131300 0.088176
579.358200 0.087283
579.585100 0.095125
579.812100 0.091418
580.039100 0.082493
580.266000 0.081363
580.493000 0.073529
580.720000 0.083202
580.947000 0.076666
581.174100 0.079492
581.401100 0.083716
581.628100 0.080787
581.855200 0.081421
582.082200 0.078222
582.309300 0.074690
582.536400 0.071849
582.763500 0.066844
582.990600 0.061896
583.217700 0.061029
583.444900 0.058574
583.672000 0.055245
583.899100 0.060978
584.126300 0.054189
584.353500 0.062726
584.580700 0.059662
584.807900 0.064406
585.035100 0.065571
585.262300 0.072974
585.489500 0.063438
585.716700 0.071236
585.944000 0.060771
586.171300 0.057088
586.398500 0.062057
586.625800 0.047457
586.853100 0.063219
587.080400 0.051509
587.307700 0.051799
587.535000 0.050034
587.762400 0.043966
587.989700 0.057547
588.217100 0.056376
588.444500 0.052182
588.671800 0.053819
588.899200 0.048491
589.126600 0.044386
589.354000 0.049110
589.581500 0.048525
589.808900 0.036314
590.036300 0.045130
590.263800 0.055036
590.491300 0.042949
590.718700 0.048865
590.946200 0.044289
591.173700 0.054518
591.401200 0.046121
591.628800 0.044131
591.856300 0.035552
592.083800 0.041223
592.311400 0.038116
592.538900 0.041871
592.766500 0.044557
592.994100 0.044854
593.221700 0.050392
593.449300 0.043411
593.676900 0.033098
593.904600 0.037937
594.132200 0.034272
594.359800 0.042799
594.587500 0.038381
594.815200 0.034832
595.042900 0.036631
595.270500 0.034111
595.498300 0.034160
595.726000 0.047542
595.953700 0.050815
596.181400 0.024189
596.409200 0.021518
596.636900 0.035007
596.864700 0.050302
597.092500 0.039332
597.320300 0.044065
597.548100 0.044746
597.775900 0.039527
598.003700 0.033855
598.231500 0.036592
598.459400 0.038052
598.687200 0.035630
598.915100 0.041822
599.143000 0.044234
599.370900 0.040852
599.598800 0.039703
599.826700 0.030487
600.054600 0.035710
600.282500 0.030240
600.510500 0.026166
600.738400 0.030631
600.966400 0.024237
601.194400 0.023801
601.422300 0.018749
601.650300 0.026134
601.878300 0.026592
602.106400 0.032064
602.334400 0.026382
602.562400 0.031738
602.790500 0.032197
603.018500 0.024842
603.246600 0.026024
603.474700 0.027785
603.702800 0.021391
603.930900 0.028018
604.159000 0.038090
604.387100 0.037274
604.615200 0.014653
604.843400 0.026800
605.071500 0.013599
605.299700 0.019002
605.527900 0.012985
605.756100 0.017233
605.984300 0.019309
606.212500 0.002688
606.440700 0.006034
606.668900 0.012427
606.897200 0.013627
607.125400 0.014395
607.353700 0.019603
607.581900 0.028087
607.810200 0.014471
608.038500 0.007929
608.266800 0.012290
608.495100 0.015691
608.723500 -0.002067
608.951800 0.015852
609.180100 0.007328
609.408500 0.016208
609.636900 0.018439
609.865300 0.007476
610.093600 0.016656
610.322000 0.019188
610.550500 0.016313
610.778900 0.017136
611.007300 0.016622
611.235700 0.013959
611.464200 0.022041
611.692700 0.005850
611.921100 0.008334
612.149600 0.005678
612.378100 0.025781
612.606600 0.016942
612.835100 0.023065
613.063700 0.028314
613.292200 0.014790
613.520800 0.016750
613.749300 0.011187
613.977900 0.023818
614.206500 0.016106
614.435100 0.036531
614.663700 0.021650
614.892300 0.019965
615.120900 0.002617
615.349500 0.027981
615.578200 0.014135
615.806800 0.010366
616.035500 0.010784
616.264200 0.013951
616.492900 0.026547
616.721600 0.009371
616.950300 0.006528
617.179000 0.008184
617.407700 0.007947
617.636500 0.012209
617.865200 0.012789
618.094000 0.019666
618.322700 0.017195
618.551500 -0.008948
618.780300 -0.000792
619.009100 0.014229
619.237900 0.031518
619.466700 0.026746
619.695600 0.014531
619.924400 0.008707
620.153300 0.002635
620.382100 0.011478
620.611000 -0.008840
620.839900 0.007054
621.068800 -0.002986
621.297700 0.022308
621.526600 -0.000510
621.755600 0.001258
621.984500 -0.003781
622.213500 0.017919
622.442400 0.012117
622.671400 0.023925
622.900400 -0.003046
623.129400 0.026697
623.358400 0.006778
623.587400 0.011205
623.816400 -0.011444
624.045400 0.011040
624.274500 -0.001710
624.503500 0.007388
624.732600 -0.005507
624.961700 0.009367
625.190800 -0.001696
625.419900 0.002158
625.649000 0.007066
625.878100 0.002159
626.107200 -0.020546
626.336400 0.005420
626.565500 0.021274
626.794700 0.019366
627.023800 0.002012
627.253000 0.006641
627.482200 0.000683
627.711400 -0.004230
627.940600 0.020653
628.169800 -0.006831
628.399100 0.006491
628.628300 -0.012726
628.857600 0.004718
629.086800 0.007252
629.316100 0.001221
629.545400 -0.003500
629.774700 0.027719
630.004000 0.006744
630.233300 0.019333
630.462600 0.019203
630.692000 0.002247
630.921300 -0.000173
631.150700 0.007295
631.380100 0.015855
631.609400 0.015996
631.838800 0.006198
632.068200 -0.000776
632.297600 0.000008
632.527100 -0.002810
632.756500 0.009414
632.985900 0.001551
633.215400 -0.017931
633.444800 0.014786
633.674300 0.002539
633.903800 0.016008
634.133300 0.004892
634.362800 0.007676
634.592300 -0.018957
634.821800 0.000083
635.051400 0.016436
635.280900 -0.001125
635.510500 -0.038515
635.740000 0.019798
635.969600 0.002572
636.199200 0.011763
636.428800 0.002612
636.658400 0.010632
636.888000 0.000873
637.117700 0.025651
637.347300 0.009089
637.577000 0.013993
637.806600 0.028924
638.036300 0.002266
638.266000 0.016242
638.495700 0.021444
638.725400 0.006982
638.955100 -0.000902
639.184800 -0.007171
639.414500 -0.001018
639.644300 -0.009973
639.874000 -0.015404
640.103800 0.021274
640.333600 0.016390
640.563300 0.010700
640.793100 0.002629
641.022900 -0.014421
641.252800 0.027205
641.482600 0.013124
641.712400 -0.005831
641.942300 -0.012620
642.172100 0.010364
642.402000 0.008457
642.631900 -0.022123
642.861700 0.007102
643.091600 0.034852
643.321600 -0.010149
643.551500 -0.043653
643.781400 0.024593
644.011300 0.009838
644.241300 0.002916
644.471200 0.002776
644.701200 -0.033378
644.931200 0.023792
645.161200 0.003166
645.391200 0.021277
645.621200 -0.007549
645.851200 -0.012864
646.081200 0.003780
646.311300 0.028453
646.541300 0.021911
646.771400 -0.037407
647.001500 0.029609
647.231600 -0.005285
647.461600 0.034876
647.691800 -0.016268
647.921900 -0.006407
648.152000 0.028606
648.382100 0.008447
648.612300 0.003922
648.842400 -0.008797
649.072600 0.012638
649.302800 -0.005895
649.532900 0.009514
649.763100 0.029978
649.993300 0.004433
650.223600 0.015993
650.453800 -0.014509
650.684000 0.010560
650.914300 -0.004545
651.144500 0.010037
651.374800 0.010039
651.605100 -0.031736
651.835400 0.000085
652.065700 0.020600
652.296000 -0.001861
652.526300 -0.011047
652.756600 -0.028512
652.987000 0.006181
653.217300 -0.022040
653.447700 0.035892
653.678000 -0.026106
653.908400 -0.012202
654.138800 0.015825
654.369200 0.018727
654.599600 0.031779
654.830000 0.007843
655.060500 -0.007444
655.290900 0.004483
655.521300 0.019500
655.751800 0.028106
655.982300 0.002910
656.212800 0.000974
656.443300 0.001458
656.673800 0.001232
656.904300 0.002850
657.134800 0.020974
657.365300 0.018896
657.595900 0.012381
657.826400 0.014788
658.057000 0.015885
658.287500 0.014503
658.518100 0.006673
658.748700 0.011400
658.979300 0.013004
659.209900 -0.000850
659.440600 -0.031320
659.671200 -0.040507
659.901800 -0.046489
660.132500 -0.026958
660.363200 -0.011020
660.593800 0.001361
660.824500 -0.028213
661.055200 0.005531
661.285900 0.007338
661.516600 0.020319
661.747400 -0.000779
661.978100 -0.017901
662.208800 0.005326
662.439600 0.054010
662.670400 0.008826
662.901100 0.026709
663.131900 -0.000994
663.362700 -0.017649
663.593500 0.016470
663.824300 -0.004159
664.055200 -0.033925
664.286000 -0.015943
664.516800 0.020049
664.747700 0.071454
664.978600 -0.021898
665.209400 0.018866
665.440300 0.051922
665.671200 -0.016957
665.902100 0.026808
666.133000 -0.027721
666.364000 -0.017237
666.594900 0.008353
666.825900 0.007273
667.056800 0.024204
667.287800 0.050781
667.518800 0.002930
667.749700 0.022093
667.980700 0.033340
668.211700 0.022025
668.442800 -0.040743
668.673800 0.012062
668.904800 -0.028347
669.135900 0.014075
669.366900 0.015101
669.598000 -0.015643
669.829100 -0.016510
670.060200 -0.022795
670.291300 0.028465
670.522400 0.004532
670.753500 -0.014523
670.984600 -0.001833
671.215700 -0.004449
671.446900 0.008402
671.678100 0.012503
671.909200 0.009458
672.140400 0.021020
672.371600 -0.015128
672.602800 0.021519
672.834000 -0.011199
673.065200 -0.012104
673.296400 -0.006215
673.527700 0.001808
673.758900 -0.021979
673.990200 -0.001269
674.221400 -0.009982
674.452700 0.027324
674.684000 -0.012873
674.915300 0.031880
675.146600 0.004879
675.377900 0.008842
675.609300 0.056200
675.840600 0.035911
676.071900 0.015164
676.303300 -0.016774
676.534700 -0.015465
676.766100 0.000158
676.997400 -0.000772
677.228800 -0.000202
677.460200 0.033179
677.691700 0.017204
677.923100 0.025968
678.154500 -0.006920
678.386000 -0.026005
678.617400 -0.013064
678.848900 -0.006263
679.080400 0.040656
679.311900 0.009611
679.543400 0.008780
679.774900 -0.006906
680.006400 0.010705
680.237900 -0.004859
680.469400 0.011277
680.701000 -0.011169
680.932500 0.036515
681.164100 0.011229
681.395700 -0.024084
681.627300 0.039618
681.858900 0.016680
682.090500 0.005070
682.322100 -0.022339
682.553700 -0.001386
682.785400 0.013340
683.017000 0.004407
683.248700 0.017201
683.480300 0.010967
683.712000 -0.029298
683.943700 0.032630
684.175400 -0.004989
684.407100 0.016187
684.638800 0.011296
684.870500 0.000207
685.102300 0.011781
685.334000 0.007669
685.565800 0.028450
685.797500 0.020466
686.029300 -0.006856
686.261100 0.009464
686.492900 0.001088
686.724700 0.007997
686.956500 -0.016338
687.188300 0.019805
687.420200 0.006023
687.652000 -0.002653
687.883800 -0.018017
688.115700 -0.002064
688.347600 -0.002965
688.579500 -0.003922
688.811400 -0.026904
689.043300 -0.007233
689.275200 -0.022255
689.507100 0.005391
689.739000 -0.016165
689.971000 -0.023556
690.202900 -0.012630
690.434900 0.012583
690.666900 0.030705
690.898800 0.026331
691.130800 0.009077
691.362800 0.009773
691.594800 0.025210
691.826900 0.013439
692.058900 -0.007107
692.290900 0.000000
692.523000 0.009333
692.755000 0.019708
692.987100 -0.000707
693.219200 0.016141
693.451300 0.019607
693.683400 0.040982
693.915500 -0.002205
694.147600 0.019541
694.379700 -0.000755
694.611900 0.010864
694.844000 0.009977
695.076200 -0.002665
695.308300 0.000000
695.540500 0.012502
695.772700 -0.031962
696.004900 0.015622
696.237100 -0.031349
696.469300 0.006958
696.701600 0.014851
696.933800 0.008446
697.166000 -0.001586
697.398300 0.015265
697.630600 0.009432
697.862800 0.002267
698.095100 0.023306
698.327400 0.011476
698.559700 -0.000956
698.792000 -0.025142
699.024300 0.008872
699.256700 -0.016153
699.489000 0.026632
699.721400 0.035737
699.953700 0.014064
700.186100 0.003358
700.418500 -0.002420
700.650900 0.014508
700.883300 -0.008344
701.115700 0.054328
701.348100 -0.014042
701.580600 0.021826
701.813000 0.016663
702.045400 0.030840
702.277900 0.002203
702.510400 0.011358
702.742900 -0.007447
702.975300 0.022576
703.207800 0.000248
703.440300 0.032197
703.672900 0.026631
703.905400 0.034234
704.137900 0.036964
704.370500 0.012527
704.603000 0.021645
704.835600 -0.014674
705.068200 -0.047601
705.300800 0.023457
705.533400 0.028761
705.766000 0.021413
705.998600 0.011337
706.231200 -0.000877
706.463800 0.017420
706.696500 0.031310
706.929100 -0.001544
707.161800 -0.022862
707.394500 0.020172
707.627200 0.005191
707.859900 0.040187
708.092600 0.011750
708.325300 0.032182
708.558000 -0.008653
708.790700 0.009775
709.023500 0.004579
709.256200 -0.019307
709.489000 -0.015527
709.721700 -0.001776
709.954500 0.007126
710.187300 -0.028256
710.420100 0.009295
710.652900 -0.033531
710.885700 -0.020645
711.118600 0.018118
711.351400 -0.011893
711.584200 0.002527
711.817100 0.008569
712.050000 -0.003652
712.282800 -0.018231
712.515700 0.000575
712.748600 -0.009234
712.981500 -0.023592
713.214400 0.020009
713.447400 0.004526
713.680300 0.017591
713.913200 0.014488
714.146200 0.022489
714.379100 -0.026408
714.612100 0.008095
714.845100 0.010851
715.078100 0.014161
715.311100 -0.013476
715.544100 -0.001413
715.777100 -0.012404
716.010200 -0.006726
716.243200 -0.015623
716.476200 0.000085
716.709300 0.030840
716.942400 0.007927
717.175400 0.001437
717.408500 -0.020125
717.641600 -0.010859
717.874700 -0.020198
718.107800 -0.007215
718.341000 0.012511
718.574100 -0.021776
718.807200 0.024114
719.040400 0.027731
719.273600 -0.004974
719.506700 0.042803
719.739900 0.009502
719.973100 -0.008627
720.206300 0.006183
720.439500 0.015421
720.672700 0.003741
720.906000 -0.007043
721.139200 0.007673
721.372500 0.011893
721.605700 -0.000373
721.839000 0.024420
722.072300 -0.003574
722.305500 -0.016790
722.538800 0.000255
722.772100 -0.024273
723.005500 0.000468
723.238800 -0.003493
723.472100 -0.007199
723.705500 -0.015993
723.938800 0.000108
724.172200 -0.005342
724.405600 -0.004911
724.638900 0.053128
724.872300 -0.005301
725.105700 0.005214
725.339100 0.010045
725.572600 0.006046
725.806000 -0.005585
726.039400 0.000180
726.272900 0.005121
726.506300 0.014953
726.739800 0.022589
726.973300 0.011777
727.206800 -0.016574
727.440300 0.035613
727.673800 0.016167
727.907300 0.029248
728.140800 -0.003422
728.374300 0.001795
728.607900 0.008632
728.841400 -0.006720
729.075000 -0.001814
729.308600 -0.019270
729.542100 -0.012356
729.775700 0.004994
730.009300 -0.019442
730.242900 0.009709
730.476600 0.027630
730.710200 -0.006093
730.943800 0.003762
731.177500 0.026003
731.411100 -0.000138
731.644800 0.005683
731.878500 -0.000566
732.112200 -0.004242
732.345800 -0.006479
732.579500 0.040608
732.813300 0.024039
733.047000 -0.004777
733.280700 0.033616
733.514500 0.021953
733.748200 0.013379
733.982000 0.010815
734.215700 -0.005534
734.449500 0.015213
734.683300 0.019836
734.917100 -0.002398
735.150900 -0.006612
735.384700 0.003134
735.618500 -0.011882
735.852400 0.005281
736.086200 0.020461
736.320100 0.000883
736.553900 0.001389
736.787800 0.010704
737.021700 0.003773
737.255600 0.016455
737.489500 -0.007961
737.723400 -0.015528
737.957300 -0.028967
738.191200 -0.017231
738.425200 0.002569
738.659100 -0.002021
738.893100 -0.029871
739.127100 0.002166
739.361000 0.003646
739.595000 0.000701
739.829000 -0.000641
740.063000 -0.017600
740.297000 0.007177
740.531000 0.009709
740.765100 -0.017988
740.999100 0.004443
741.233200 0.014816
741.467200 0.023619
741.701300 0.000181
741.935400 0.007722
742.169500 -0.015650
742.403600 -0.003724
742.637700 -0.009127
742.871800 0.022395
743.105900 0.031073
743.340000 0.004733
743.574200 0.013489
743.808300 -0.012992
744.042500 -0.026095
744.276700 -0.001447
744.510800 0.006988
744.745000 0.005525
744.979200 0.029919
745.213400 0.004303
745.447700 0.007319
745.681900 -0.033930
745.916100 0.026201
746.150400 -0.009366
746.384600 0.004254
746.618900 -0.038839
746.853200 0.021526
747.087400 0.007935
747.321700 0.036286
747.556000 0.003829
747.790300 -0.021926
748.024700 -0.013362
748.259000 -0.010534
748.493300 0.020078
748.727700 -0.016482
748.962000 0.002662
749.196400 -0.032819
749.430800 0.007859
749.665200 -0.015163
749.899500 -0.027953
750.133900 -0.016021
750.368400 0.008428
750.602800 0.000997
750.837200 -0.031134
751.071700 0.010433
751.306100 -0.015218
751.540600 -0.018640
751.775000 0.030001
752.009500 -0.002945
752.244000 -0.019487
752.478500 -0.014158
752.713000 0.002905
752.947500 0.008614
753.182000 0.013700
753.416600 0.005660
753.651100 0.027139
753.885600 0.005030
754.120200 0.006060
754.354800 0.000560
754.589400 -0.014174
754.823900 0.001586
755.058500 0.002223
755.293100 -0.001348
755.527800 -0.003867
755.762400 -0.009230
755.997000 -0.010354
756.231700 0.003215
756.466300 0.006092
756.701000 0.009686
756.935600 0.009723
757.170300 0.001806
757.405000 0.010608
757.639700 0.005831
757.874400 0.018512
758.109100 0.026119
758.343800 0.004874
758.578600 -0.004766
758.813300 0.004085
759.048100 0.006384
759.282800 -0.003916
759.517600 0.034948
759.752400 0.007150
759.987200 0.008032
760.222000 0.015805
760.456800 -0.000971
760.691600 0.016500
760.926400 0.013535
761.161300 0.005362
761.396100 -0.012469
761.631000 -0.007957
761.865800 0.036626
762.100700 0.002760
762.335600 0.022682
762.570500 -0.003727
762.805400 -0.017250
763.040300 -0.006917
763.275200 -0.006480
763.510100 -0.003696
763.745000 0.018333
763.980000 0.002725
764.214900 -0.013519
764.449900 0.008256
764.684900 -0.002441
764.919800 -0.014395
765.154800 0.003426
765.389800 0.001699
765.624800 0.025412
765.859900 -0.011292
766.094900 -0.012655
766.329900 0.006435
766.565000 0.005877
766.800000 -0.005587
767.035100 -0.002294
767.270100 0.011876
767.505200 0.010598
767.740300 0.025726
767.975400 0.005636
768.210500 0.001023
768.445600 -0.016440
768.680800 0.000700
768.915900 0.008571
769.151000 0.000310
769.386200 0.014506
769.621400 0.003646
769.856500 0.028574
770.091700 -0.005874
770.326900 -0.026030
770.562100 0.004257
770.797300 0.005263
771.032500 -0.010834
771.267700 -0.006973
771.503000 0.010461
771.738200 0.013503
771.973500 -0.008053
772.208700 -0.006065
772.444000 0.022318
772.679300 0.006849
772.914600 -0.007290
773.149900 0.010018
773.385200 -0.003912
773.620500 -0.006613
773.855800 0.005349
774.091100 -0.014535
774.326500 0.007666
774.561800 0.011750
774.797200 0.027840
775.032600 0.058425
775.267900 -0.043807
775.503300 0.014770
775.738700 0.022098
775.974100 0.000281
776.209500 -0.008343
776.445000 -0.000725
776.680400 0.036329
776.915800 -0.009034
777.151300 0.010397
777.386800 -0.005531
777.622200 0.020901
777.857700 0.010954
778.093200 0.006097
778.328700 -0.010643
778.564200 -0.028115
778.799700 0.014725
779.035200 -0.008096
779.270700 -0.013701
779.506300 0.011409
779.741800 0.002473
779.977400 -0.013472
780.213000 -0.009325
780.448500 0.005070
780.684100 0.010720
780.919700 0.047348
781.155300 -0.000370
781.390900 0.021063
781.626500 -0.005081
781.862200 0.036911
782.097800 0.002553
782.333500 -0.017253
782.569100 -0.017261
782.804800 -0.016632
783.040500 0.003475
783.276100 -0.002331
783.511800 0.007868
783.747500 -0.020872
783.983200 -0.012169
784.219000 -0.012261
784.454700 0.042540
784.690400 0.047209
784.926200 0.012618
785.161900 0.011801
785.397700 -0.022542
785.633500 -0.024128
785.869200 0.000103
786.105000 0.020194
786.340800 0.026666
786.576600 0.009446
786.812400 -0.025161
787.048300 0.018143
787.284100 0.024182
787.519900 0.002753
787.755800 0.025907
787.991700 0.039296
788.227500 0.016796
788.463400 0.015468
788.699300 -0.007355
788.935200 0.010090
789.171100 0.008518
789.407000 -0.009954
789.642900 0.011671
789.878900 0.008792
790.114800 -0.021980
790.350700 0.005286
790.586700 0.021346
790.822700 0.020091
791.058600 -0.007496
791.294600 0.003312
791.530600 0.020867
791.766600 -0.026117
792.002600 -0.004069
792.238700 0.008920
792.474700 0.053630
792.710700 -0.004808
792.946800 -0.039903
793.182800 0.011006
793.418900 0.012761
793.655000 0.001887
793.891000 0.045276
794.127100 0.032111
794.363200 0.002149
794.599300 -0.005419
794.835500 -0.020755
795.071600 0.003246
795.307700 0.024026
795.543900 0.004300
795.780000 0.010893
796.016200 0.036053
796.252300 0.025014
796.488500 0.038023
796.724700 0.049828
796.960900 0.042299
797.197100 0.009389
797.433300 -0.032585
797.669500 0.027489
797.905800 0.001100
798.142000 0.019834
798.378300 -0.003531
798.614500 -0.012969
798.850800 0.012409
799.087100 0.024746
799.323300 -0.025560
799.559600 0.000645
799.795900 -0.052796
800.032200 0.038514
800.268600 -0.014521
800.504900 0.037985
800.741200 0.013703
800.977600 -0.013631
801.213900 0.014465
801.450300 0.043938
801.686700 0.001257
801.923000 -0.012049
802.159400 0.018722
802.395800 -0.029186
802.632200 0.048227
802.868600 -0.050571
803.105100 0.018803
803.341500 -0.038444
803.577900 0.008985
803.814400 -0.025723
804.050800 -0.020118
804.287300 0.021910
804.523800 -0.029403
804.760300 -0.008929
804.996800 -0.032931
805.233300 -0.008591
805.469800 0.009092
805.706300 -0.018257
805.942800 -0.010305
806.179400 -0.010477
806.415900 -0.015316
806.652500 0.016213
806.889000 0.054817
807.125600 -0.007702
807.362200 0.010893
807.598800 0.040534
807.835400 0.005846
808.072000 0.006321
808.308600 0.040091
808.545200 0.018285
808.781800 -0.028457
809.018500 0.039417
809.255100 -0.025514
809.491800 -0.010077
809.728400 0.008294
809.965100 0.031484
810.201800 0.005513
810.438500 0.015517
810.675200 0.015040
810.911900 0.007291
811.148600 0.001652
811.385300 -0.014840
811.622100 0.019833
811.858800 -0.007537
812.095600 -0.043654
812.332300 -0.034140
812.569100 -0.009224
812.805900 0.001117
813.042700 0.003342
813.279500 0.040020
813.516300 -0.018238
813.753100 0.014247
813.989900 -0.011719
814.226700 0.032222
814.463600 0.015238
814.700400 0.031256
814.937300 0.006725
815.174200 -0.000443
815.411000 0.006363
815.647900 -0.051558
815.884800 -0.028449
816.121700 -0.017256
816.358600 -0.003742
816.595500 0.041432
816.832400 -0.013234
817.069400 0.016450
817.306300 -0.029698
817.543300 -0.006651
817.780200 -0.051919
818.017200 0.042172
818.254200 0.032757
818.491200 -0.040243
818.728200 0.034341
818.965200 -0.032732
819.202200 -0.014510
819.439200 0.030526
819.676200 0.010460
819.913300 0.013265
820.150300 -0.004552
820.387400 0.057745
820.624400 0.058839
820.861500 0.003248
821.098600 0.042279
821.335700 0.050576
821.572700 -0.010784
821.809900 0.012956
822.047000 0.005689
822.284100 -0.033981
822.521200 0.027508
822.758400 0.025144
822.995500 0.035972
823.232700 0.055122
823.469800 0.008425
823.707000 -0.065949
823.944200 0.033612
824.181400 0.048156
824.418600 -0.022185
824.655800 0.024749
824.893000 0.010622
825.130200 -0.046659
825.367500 0.022911
825.604700 -0.021091
825.841900 0.046303
826.079200 0.000186
826.316500 -0.004352
826.553700 0.030213
826.791000 0.078814
827.028300 0.072306
827.265600 0.053728
827.502900 0.004845
827.740200 0.019162
827.977600 -0.019143
828.214900 0.022029
828.452200 0.009955
828.689600 0.015807
828.927000 -0.016670
829.164300 -0.042466
829.401700 -0.014100
829.639100 0.055147
829.876500 -0.067845
830.113900 0.064795
830.351300 0.003005
830.588700 -0.011833
830.826100 -0.026762
831.063600 -0.009850
831.301000 0.060450
831.538500 -0.016615
831.775900 -0.064866
832.013400 0.021214
832.250900 -0.031861
832.488400 0.097967
832.725900 -0.025470
832.963400 -0.020553
833.200900 0.049052
833.438400 0.051996
833.675900 0.036455
833.913500 0.031016
834.151000 0.099523
834.388600 0.108551
834.626100 -0.014256
834.863700 0.009225
835.101300 -0.065602
835.338900 0.065014
835.576500 -0.016675
835.814100 0.002433
836.051700 -0.045364
836.289300 0.144491
836.526900 -0.004826
836.764600 0.006828
837.002200 -0.012800
837.239900 0.068928
837.477500 -0.042821
837.715200 0.053279
837.952900 0.019780
838.190600 0.073350
838.428300 -0.100701
838.666000 0.067950
838.903700 -0.041828
839.141400 0.090932
839.379100 -0.088356
839.616900 -0.005308
839.854600 0.031623
840.092400 0.061350
840.330200 -0.036535
840.567900 0.048532
840.805700 0.075660
841.043500 0.040967
841.281300 -0.003112
841.519100 0.145835
841.756900 -0.013352
841.994700 -0.039293
842.232600 -0.015993
842.470400 0.151176
842.708200 0.000082
842.946100 -0.093378
843.184000 -0.100566
843.421800 0.149975
843.659700 0.036472
843.897600 -0.163120
844.135500 0.125221
844.373400 0.044258
844.611300 0.134385
844.849200 -0.003176
845.087200 0.014667
845.325100 0.106375
845.563100 0.007694
845.801000 0.043669
846.039000 0.160828
846.277000 -0.003615
846.514900 0.028316
846.752900 -0.120591
846.990900 -0.123458
847.228900 -0.155318
847.466900 0.141825
847.705000 -0.074031
847.943000 -0.101286
848.181000 0.020134
848.419100 0.014331
848.657100 0.072587
848.895200 -0.079166
849.133300 0.075026
849.371300 0.066895
849.609400 0.052493
849.847500 0.046421
850.085600 -0.043218
850.323700 0.062309
850.561900 0.058019
850.800000 0.210734
851.038100 -0.039039
851.276300 -0.002003
851.514400 -0.137331
851.752600 0.045673
851.990800 0.033003
852.228900 -0.056209
852.467100 0.107805
852.705300 0.017529
852.943500 -0.010271
853.181700 -0.027037
853.420000 -0.038191
853.658200 0.003464
853.896400 0.042460
854.134700 0.061844
854.372900 -0.035188
854.611200 0.009807
854.849500 0.028256
855.087700 -0.017452
855.326000 0.035844
855.564300 0.031097
855.802600 0.010190
856.040900 0.077430
856.279200 0.075320
856.517600 0.047341
856.755900 -0.075766
856.994200 -0.061132
857.232600 0.073239
857.471000 -0.024779
857.709300 -0.062011
857.947700 -0.044444
858.186100 0.077381
858.424500 -0.039065
858.662900 -0.025082
858.901300 0.009574
859.139700 0.001435
859.378100 -0.005292
859.616600 -0.043404
859.855000 0.059292
860.093500 -0.060059
860.331900 -0.002852
860.570400 -0.038045
860.808900 -0.007907
861.047300 -0.032749
861.285800 0.020849
861.524300 0.017976
861.762800 0.152478
862.001300 0.095376
862.239900 0.078047
862.478400 -0.045444
862.716900 -0.000697
862.955500 0.016641
863.194000 0.011545
863.432600 0.022382
863.671200 -0.006724
863.909800 -0.003458
864.148300 -0.059448
864.386900 -0.087235
864.625500 0.073142
864.864200 0.000073
865.102800 0.017163
865.341400 0.117693
865.580000 0.012695
865.818700 0.008242
866.057300 0.075339
866.296000 -0.028688
866.534700 0.084321
866.773300 0.103820
867.012000 0.024773
867.250700 -0.021872
867.489400 -0.115850
867.728100 -0.062408
867.966900 0.015384
868.205600 -0.041794
868.444300 -0.081988
868.683100 -0.084673
868.921800 0.025612
869.160600 -0.055938
869.399300 0.079023
869.638100 -0.011208
869.876900 -0.016453
870.115700 -0.078866
870.354500 -0.045843
870.593300 0.008224
870.832100 -0.042199
871.070900 -0.116538
871.309700 -0.038773
871.548600 0.105813
871.787400 0.026275
872.026300 -0.054358
872.265100 -0.022734
872.504000 -0.095820
872.742900 -0.098367
872.981800 -0.031443
873.220700 -0.050383
873.459600 0.090746
873.698500 -0.035596
873.937400 0.016803
874.176300 -0.078896
874.415300 0.107781
874.654200 0.045428
874.893200 0.026770
875.132100 -0.078857
875.371100 -0.022039
875.610100 0.049074
875.849100 0.047994
876.088000 -0.017482
876.327000 0.035854
876.566100 0.097257
876.805100 -0.128487
877.044100 -0.113000
877.283100 -0.030988
877.522200 0.030232
877.761200 -0.040524
878.000300 0.079437
878.239300 0.114079
878.478400 0.008480
878.717500 0.001252
878.956600 0.108724
879.195700 0.078906
879.434800 -0.066591
879.673900 -0.018372
879.913000 0.000000
880.152100 0.025711
880.391300 0.001554
880.630400 0.055046
880.869600 -0.073515
881.108700 -0.011004
881.347900 0.015400
881.587100 0.027240
881.826200 0.099193
882.065400 0.093362
882.304600 -0.044705
882.543800 0.019363
882.783100 0.053993
883.022300 -0.030516
883.261500 -0.003723
883.500700 -0.039796
883.740000 0.031688
883.979200 -0.043407
884.218500 0.052491
884.457800 -0.071349
884.697100 -0.036282
884.936300 0.063348
885.175600 0.114573
885.414900 0.053678
885.654200 0.043623
885.893600 -0.028808
886.132900 0.021384
886.372200 0.010342
886.611600 -0.131071
886.850900 0.004507
887.090300 0.090350
887.329600 -0.017436
887.569000 -0.000793
887.808400 -0.018030
888.047800 -0.165782
888.287200 0.011141
888.526600 -0.049791
888.766000 -0.020729
889.005400 0.039458
889.244800 0.066660
889.484300 -0.100916
889.723700 0.023991
889.963200 0.012441
890.202600 0.027219
890.442100 -0.049273
890.681600 0.008955
890.921100 0.138771
891.160600 0.047695
891.400100 0.030801
891.639600 0.069793
891.879100 0.044369
892.118600 0.050814
892.358100 -0.002782
892.597700 0.013047
892.837200 0.144337
893.076800 0.066707
893.316300 0.004428
893.555900 -0.088530
893.795500 0.024773
894.035100 -0.115651
894.274700 0.117382
894.514300 0.025231
894.753900 -0.034685
894.993500 0.066669
895.233100 -0.155675
895.472700 -0.011257
895.712400 0.051371
895.952000 -0.035112
896.191700 -0.029138
896.431400 -0.090399
896.671000 0.179624
896.910700 0.018949
897.150400 0.146281
897.390100 0.027704
897.629800 0.025010
897.869500 -0.001754
898.109200 0.190400
898.348900 -0.010102
898.588700 -0.042282
898.828400 0.040888
899.068200 0.033858
899.307900 0.053573
899.547700 0.018776
899.787500 0.131176
900.027200 -0.151689
900.267000 0.043663
900.506800 0.097254
900.746600 -0.005334
900.986400 0.382203
901.226300 0.212405
901.466100 -0.046264
901.705900 0.126363
901.945800 -0.067608
902.185600 -0.020608
902.425500 -0.135676
902.665400 -0.161769
902.905200 -0.012528
903.145100 -0.042271
903.385000 0.022441
903.624900 0.018028
903.864800 0.086706
904.104700 0.117770
904.344600 -0.056859
904.584600 -0.064529
904.824500 -0.022311
905.064400 0.048978
905.304400 -0.014047
905.544400 -0.015757
905.784300 0.148126
906.024300 0.087774
906.264300 -0.020565
906.504300 0.073602
906.744300 0.018602
906.984300 -0.149829
907.224300 0.113586
907.464300 -0.026033
907.704300 -0.129129
907.944400 -0.067855
908.184400 -0.002127
908.424500 -0.069315
908.664500 -0.102397
908.904600 -0.022276
909.144700 -0.082495
909.384700 0.086126
909.624800 0.042666
909.864900 -0.002003
910.105000 -0.005864
910.345200 -0.241525
910.585300 -0.034536
910.825400 0.166919
911.065500 0.003794
911.305700 -0.020173
911.545800 -0.099887
911.786000 0.122699
912.026200 -0.114957
912.266300 0.136049
912.506500 0.001307
912.746700 0.032381
912.986900 -0.048994
913.227100 -0.074400
913.467300 -0.062364
913.707500 -0.094971
913.947800 -0.052156
914.188000 0.139497
914.428300 -0.014911
914.668500 0.053729
914.908800 0.115747
915.149000 -0.107991
915.389300 0.072894
915.629600 0.027789
915.869900 0.119827
916.110200 0.140733
916.350500 0.048364
916.590800 -0.011570
916.831100 -0.077288
917.071400 -0.027518
917.311800 0.081253
917.552100 0.105361
917.792500 -0.079053
918.032800 0.170892
918.273200 0.236127
918.513600 -0.029257
918.753900 0.144421
918.994300 0.147366
919.234700 0.139959
919.475100 0.117939
919.715500 0.080617
919.956000 0.064191
920.196400 -0.052687
920.436800 -0.021131
920.677300 0.237325
920.917700 0.087282
921.158200 0.021660
921.398600 0.041756
921.639100 0.003294
921.879600 -0.153756
922.120100 0.139876
922.360600 0.162161
922.601100 -0.002377
922.841600 0.072031
923.082100 -0.143809
923.322600 -0.130458
923.563100 0.024058
923.803700 0.098039
924.044200 -0.076054
924.284800 0.143037
924.525400 0.151406
924.765900 0.400689
925.006500 -0.047689
925.247100 -0.085602
925.487700 0.017101
925.728300 0.182920
925.968900 0.350319
926.209500 -0.006048
926.450100 0.067807
926.690800 0.358118
926.931400 0.338710
927.172000 0.063321
927.412700 0.033054
927.653300 0.031716
927.894000 -0.189625
928.134700 0.124827
928.375400 -0.143730
928.616100 0.223599
928.856800 0.096867
929.097500 -0.130402
929.338200 -0.094632
929.578900 0.210837
929.819600 0.063148
930.060400 -0.110743
930.301100 -0.036387
930.541900 0.186616
930.782600 0.166969
931.023400 0.011025
931.264200 0.124365
931.504900 0.033010
931.745700 0.182607
931.986500 0.363069
932.227300 0.464873
932.468100 0.103794
932.708900 -0.047630
932.949800 0.251184
933.190600 -0.066094
933.431400 0.010937
933.672300 -0.103584
933.913100 -0.024365
934.154000 0.059043
934.394900 0.017395
934.635800 -0.147841
934.876600 -0.019679
935.117500 0.251019
935.358400 0.172937
935.599300 0.594690
935.840300 0.213620
936.081200 0.274613
936.322100 -0.344088
936.563000 0.377418
936.804000 0.145570
937.044900 0.167761
937.285900 0.422722
937.526900 0.224026
937.767800 0.144978
938.008800 -0.114389
938.249800 0.369779
938.490800 0.177601
938.731800 0.050279
938.972800 0.184969
939.213800 0.182942
939.454900 0.091251
939.695900 -0.039673
939.936900 0.198308
940.178000 0.023014
940.419000 0.131166
940.660100 0.546572
940.901200 0.173422
941.142200 -0.200129
941.383300 0.158414
941.624400 -0.044716
941.865500 0.163435
942.106600 0.061736
942.347700 -0.075311
942.588900 0.153172
942.830000 -0.033136
943.071100 -0.059596
943.312300 0.195782
943.553400 0.072875
943.794600 -0.006043
944.035700 0.175588
944.276900 -0.063594
944.518100 -0.124099
944.759300 0.134683
945.000500 -0.327055
945.241700 0.132235
945.482900 0.131633
945.724100 0.186671
945.965300 0.217790
946.206600 -0.199372
946.447800 -0.057569
946.689100 0.404704
946.930300 -0.588322
947.171600 0.115693
947.412800 -0.059270
947.654100 -0.183980
947.895400 0.448412
948.136700 0.394373
948.378000 -0.264475
948.619300 0.237972
948.860600 0.219967
949.101900 -0.181197
949.343300 -0.227920
949.584600 0.276586
949.825900 0.679947
950.067300 0.369928
950.308600 -0.260142
950.550000 -0.045391
950.791400 -0.633882
951.032700 -0.422828
951.274100 0.562988
951.515500 0.373629
951.756900 1.175195
951.998300 -0.073253
952.239800 0.267875
952.481200 0.679652
952.722600 0.012103
952.964000 0.314000
953.205500 0.681186
953.446900 -0.258721
953.688400 -0.185600
953.929900 0.571172
954.171300 -1.500990
954.412800 -0.197459
954.654300 0.105439
954.895800 -0.072096
955.137300 0.091143
955.378800 0.474445
955.620300 0.352458
955.861800 0.401046
956.103400 -0.029060
956.344900 -0.074648
956.586500 -0.163186
956.828000 -0.024798
957.069600 0.369842
957.311100 -0.522646
957.552700 0.204616
957.794300 -0.122242
958.035900 -0.307879
958.277500 -0.036600
958.519100 0.330622
958.760700 -0.127673
959.002300 -0.218189
959.243900 -0.100681
959.485600 -0.425445
959.727200 0.042349
959.968800 1.037741
960.210500 -0.290692
960.452200 -0.473134
960.693800 0.170115
960.935500 -3.173186
961.177200 -0.111930
961.418900 -0.079181
961.660600 -0.049794
961.902300 2.095460
962.144000 0.468901
962.385700 0.274495
962.627400 0.086706
962.869200 -0.483702
963.110900 0.325373
963.352700 -0.244827
963.594400 -0.066115
963.836200 0.406279
964.077900 -0.282046
964.319700 -0.145107
964.561500 -0.052068
964.803300 -0.156318
965.045100 0.165643
965.286900 -0.107583
965.528700 -0.007743
965.770500 -0.231515
966.012300 -0.369635
966.254200 -0.454808
966.496000 -0.792969
966.737900 0.137528
966.979700 0.550818
967.221600 -0.258585
967.463400 -0.154509
967.705300 0.301642
967.947200 -0.370966
968.189100 -0.617208
968.431000 0.582432
968.672900 0.642561
968.914800 -0.062175
969.156700 2.745075
969.398700 -0.002747
969.640600 2.245513
969.882500 0.175398
970.124500 2.575188
970.366400 0.075019
970.608400 3.042969
970.850400 -0.536381
971.092300 0.818539
971.334300 0.046844
971.576300 -0.116377
971.818300 0.197771
972.060300 0.493584
972.302300 0.926776
972.544300 0.129125
972.786400 0.072528
973.028400 1.063811
973.270400 0.009821
973.512500 3.082426
973.754500 0.225457
973.996600 -0.139739
974.238700 0.191886
974.480700 0.309630
974.722800 0.439040
974.964900 0.127345
975.207000 0.271879
975.449100 -0.698571
975.691200 0.368367
975.933300 2.853698
976.175500 -3.113943
976.417600 0.151879
976.659700 0.207145
976.901900 0.428317
977.144000 0.209392
977.386200 -0.434190
977.628300 0.218265
977.870500 -0.311000
978.112700 -0.402563
978.354900 -0.048152
978.597100 -0.085561
978.839300 3.206826
979.081500 0.291152
979.323700 -1.518514
979.565900 -0.146532
979.808200 0.228262
980.050400 0.091846
980.292600 3.008600
980.534900 3.012837
980.777100 -0.201910
981.019400 2.752816
981.261700 0.208570
981.504000 0.256519
981.746200 -0.579784
981.988500 0.002111
982.230800 0.040578
982.473100 3.192567
982.715500 0.520781
982.957800 -0.277664
983.200100 0.352849
983.442400 -0.543764
983.684800 0.034418
983.927100 -0.391067
984.169500 0.147838
984.411800 0.477665
984.654200 -0.367330
984.896600 0.062839
985.139000 1.230449
985.381400 0.570205
985.623800 -0.082368
985.866200 0.267773
986.108600 0.000000
986.351000 0.190632
986.593400 -0.172352
986.835800 0.279379
987.078300 0.376794
987.320700 0.482635
987.563200 -0.272886
987.805600 -0.448350
988.048100 0.595923
988.290600 -0.077166
988.533100 0.000000
988.775600 1.901277
989.018000 0.008407
989.260500 0.389130
989.503100 -2.615950
989.745600 2.123852
989.988100 0.000000
990.230600 0.481654
990.473200 0.948736
990.715700 0.433553
990.958200 -0.684964
991.200800 0.673193
991.443400 -2.517196
991.685900 -0.070200
991.928500 -2.615950
992.171100 -0.556805
992.413700 3.125806
992.656300 0.396744
992.898900 -0.281698
993.141500 0.254331
993.384100 3.021603
993.626700 0.032319
993.869400 0.045255
994.112000 -0.195554
994.354700 0.232264
994.597300 0.392705
994.840000 0.000000
995.082600 -0.723026
995.325300 2.269513
995.568000 0.268845
995.810700 2.127105
996.053400 -0.009353
996.296100 2.827369
996.538800 -0.160064
996.781500 0.390824
997.024200 -0.996105
997.267000 0.486339
997.509700 0.086993
997.752400 2.768638
997.995200 -0.392580
998.237900 2.701568
998.480700 0.002804
998.723500 -2.488551
998.966200 -0.330063
999.209000 -2.348305
999.451800 0.193659
999.694600 3.025715
999.937400 -0.492169
1000.180200 -0.363408
1000.423000 0.508117
1000.665900 0.083823
1000.908700 2.396199
1001.151500 0.987179
1001.394400 0.287193
1001.637200 0.399938
1001.880100 -1.425969
1002.123000 -0.416852
1002.365800 -0.287734
1002.608700 -0.130616
1002.851600 -0.179086
1003.094500 3.086360
1003.337400 -0.562833
1003.580300 -2.824126
1003.823200 -0.073577
1004.066100 0.095314
1004.309100 2.719331
1004.552000 -0.258337
1004.794900 -0.144981
1005.037900 1.248554
1005.280800 2.806180
1005.523800 0.083874
1005.766700 0.124939
1006.009700 0.350046
1006.252700 -3.099681
1006.495700 2.812913
1006.738700 0.000000
1006.981700 0.647535
1007.224700 -0.383815
1007.467700 -0.706567
1007.710700 -0.503283
1007.953800 0.202634
1008.196800 -0.424372
1008.439800 0.060850
1008.682900 2.691965
1008.925900 0.365211
1009.169000 0.340161
1009.412100 -3.141136
1009.655100 -1.002547
1009.898200 0.538853
1010.141300 -0.204520
1010.384400 0.039248
1010.627500 2.550228
1010.870600 0.145298
1011.113700 0.470410
1011.356800 2.820201
1011.600000 -0.289749
1011.843100 0.021510
1012.086300 -2.637490
1012.329400 -0.112535
1012.572600 -2.932981
1012.815700 0.003586
1013.058900 -2.824126
1013.302100 -0.267950
1013.545200 0.097623
1013.788400 0.313042
1014.031600 -2.887617
1014.274800 0.617300
1014.518000 0.262693
1014.761300 3.177536
1015.004500 0.000000
1015.247700 2.940516
1015.490900 -2.910624
1015.734200 0.140119
1015.977400 -0.586779
1016.220700 0.000000
1016.464000 0.309021
1016.707200 -0.267550
1016.950500 -0.776026
1017.193800 -0.129079
1017.437100 -0.439441
1017.680400 0.175194
1017.923700 -0.203373
1018.167000 0.974046
1018.410300 2.643453
1018.653600 -0.049974
1018.896900 -0.264629
1019.140300 -0.117791
1019.383600 0.458638
1019.627000 2.950851
1019.870300 2.465383
1020.113700 0.022786
1020.357100 2.575188
1020.600400 0.029572
1020.843800 3.090258
1021.087200 3.287130
1021.330600 -3.219846
1021.574000 0.195137
1021.817400 -2.348305
1022.060800 -2.071882
1022.304200 0.000000
1022.547700 0.596652
1022.791100 2.432969
1023.034500 2.812913
