# Wavelength	Absorbance
197.780200 -0.037932
197.984200 0.501408
198.188200 3.093772
198.392200 -0.383435
198.596300 1.292055
198.800300 -0.439333
199.004400 -0.177312
199.208500 0.497071
199.412600 -0.150669
199.616800 2.768638
199.820900 2.465383
200.025100 2.877947
200.229200 2.463893
200.433400 0.321071
200.637600 -0.136880
200.841800 2.902003
201.046100 -0.219543
201.250300 0.354534
201.454600 1.286394
201.658900 0.382767
201.863100 0.089501
202.067400 2.760422
202.271800 0.917681
202.476100 2.896526
202.680500 -0.400774
202.884800 2.980458
203.089200 0.140867
203.293600 0.242648
203.498000 -0.152296
203.702400 -0.601559
203.906900 -1.158561
204.111300 -2.502427
204.315800 -0.550857
204.520300 1.701230
204.724800 0.558327
204.929300 2.396199
205.133800 1.064388
205.338400 2.820201
205.543000 0.314101
205.747500 0.869232
205.952100 -0.289296
206.156700 0.927418
206.361400 -1.361728
206.566000 2.187521
206.770600 3.168203
206.975300 -0.808995
207.180000 0.845098
207.384700 2.587711
207.589400 -2.648360
207.794100 -0.102056
207.998900 -0.194690
208.203600 2.851258
208.408400 2.970812
208.613200 2.820201
208.818000 -0.109761
209.022800 -0.892309
209.227600 0.536900
209.432500 2.907949
209.637300 2.752816
209.842200 2.294466
210.047100 -0.266929
210.252000 -0.816740
210.456900 0.181104
210.661800 3.055378
210.866800 -0.039746
211.071800 -0.095542
211.276700 -0.202641
211.481700 -0.251716
211.686700 2.632457
211.891800 -0.684048
212.096800 0.548091
212.301800 -0.267036
212.506900 1.033692
212.712000 2.965672
212.917100 0.344387
213.122200 1.053374
213.327300 0.593526
213.532500 0.000000
213.737600 -0.159148
213.942800 1.447158
214.148000 2.631444
214.353200 -2.472756
214.558400 0.153395
214.763600 3.265290
214.968900 0.228140
215.174100 0.222532
215.379400 0.000000
215.584700 -0.046806
215.790000 3.021603
215.995300 -0.297401
216.200700 0.137794
216.406000 2.902003
216.611400 -0.508155
216.816800 2.833784
217.022200 -0.529887
217.227600 3.086360
217.433000 2.536558
217.638400 0.130821
217.843900 -0.181251
218.049400 -2.959041
218.254800 0.286968
218.460300 3.008600
218.665900 3.186674
218.871400 3.234517
219.076900 2.990339
219.282500 -0.239083
219.488100 0.640735
219.693600 0.078040
219.899200 0.097379
220.104900 0.614469
220.310500 -0.937504
220.516100 -2.328380
220.721800 -0.115957
220.927500 0.083032
221.133200 -0.336796
221.338900 -0.215600
221.544600 0.073901
221.750300 3.183555
221.956100 0.375932
222.161800 2.338456
222.367600 0.331221
222.573400 -0.159321
222.779200 0.000000
222.985000 0.000000
223.190900 3.017451
223.396700 0.513966
223.602600 0.819544
223.808500 0.453095
224.014400 0.205338
224.220300 2.935507
224.426200 -0.259306
224.632200 0.059155
224.838100 2.890421
225.044100 0.095705
225.250100 -0.523123
225.456100 2.653213
225.662100 -0.364929
225.868100 0.765377
226.074200 2.632457
226.280200 0.000000
226.486300 0.739745
226.692400 0.000000
226.898500 0.174033
227.104600 0.932738
227.310700 0.229979
227.516900 -0.125257
227.723000 2.089905
227.929200 3.252853
228.135400 0.025211
228.341600 2.622214
228.547800 3.108227
228.754100 -0.190346
228.960300 0.432599
229.166600 0.000000
229.372900 0.302643
229.579100 2.683047
229.785500 -0.241331
229.991800 -1.896054
230.198100 -0.383435
230.404500 -0.809267
230.610800 -0.037502
230.817200 -2.472756
231.023600 0.657425
231.230000 -0.119727
231.436400 2.851258
231.642900 2.718502
231.849300 -0.515591
232.055800 2.008600
232.262300 0.264763
232.468800 0.315589
232.675300 -0.203688
232.881800 2.599883
233.088400 -0.085514
233.294900 -0.293627
233.501500 -0.057039
233.708100 -1.643453
233.914700 -0.077205
234.121300 0.000000
234.327900 -0.399680
234.534600 1.320417
234.741300 3.097604
234.947900 2.736397
235.154600 0.903772
235.361300 0.454158
235.568000 1.378563
235.774800 2.662758
235.981500 0.278992
236.188300 -3.233504
236.395100 2.999565
236.601800 -2.531479
236.808700 -0.327750
237.015500 0.255557
237.222300 2.853698
237.429200 0.981988
237.636000 1.399516
237.842900 -0.555282
238.049800 -0.114467
238.256700 2.653213
238.463600 -0.153887
238.670600 2.970812
238.877500 0.513607
239.084500 -2.502427
239.291500 0.037976
239.498500 -0.571391
239.705500 2.643453
239.912500 1.845098
240.119500 1.690196
240.326600 -0.458028
240.533700 -3.137987
240.740700 2.621176
240.947800 2.990339
241.154900 0.228596
241.362100 3.108227
241.569200 -0.170316
241.776400 -0.183284
241.983500 0.115518
242.190700 0.290372
242.397900 0.000000
242.605100 -0.477541
242.812400 2.587711
243.019600 0.384960
243.226900 -0.092656
243.434100 1.100371
243.641400 0.131091
243.848700 -0.138226
244.056000 0.000000
244.263400 2.352183
244.470700 3.082785
244.678100 0.609670
244.885400 0.088136
245.092800 2.682145
245.300200 0.714482
245.507600 3.330008
245.715100 3.034628
245.922500 3.026125
246.130000 1.230449
246.337500 1.821827
246.544900 0.461701
246.752400 3.362859
246.960000 0.334656
247.167500 3.215373
247.375000 -2.472756
247.582600 0.996332
247.790200 -1.071356
247.997800 3.025715
248.205400 0.346472
248.413000 0.370312
248.620600 -0.075232
248.828300 3.270213
249.035900 0.306324
249.243600 0.134730
249.451300 0.465492
249.659000 -0.140880
249.866700 1.524750
250.074500 3.226342
250.282200 3.189490
250.490000 3.021603
250.697800 -0.284342
250.905600 -0.102056
251.113400 0.372422
251.321200 -0.561583
251.529000 2.008600
251.736900 0.020080
251.944700 3.186674
252.152600 0.178999
252.360500 -0.047279
252.568400 2.361728
252.776300 2.397940
252.984300 0.429246
253.192200 2.985426
253.400200 2.935003
253.608200 -0.202891
253.816200 1.175186
254.024200 0.765529
254.232200 2.414973
254.440200 -2.627366
254.648300 -0.100441
254.856400 -0.582411
255.064400 -0.429771
255.272500 3.097604
255.480600 3.104828
255.688800 0.000000
255.896900 0.324331
256.105100 0.368428
256.313200 -0.174554
256.521400 2.827369
256.729600 0.066674
256.937800 1.527981
257.146000 -0.280412
257.354300 -2.406540
257.562500 3.204120
257.770800 0.000000
257.979100 -0.142313
258.187400 2.833784
258.395700 0.058710
258.604000 0.190773
258.812400 0.337015
259.020700 3.026125
259.229100 0.765392
259.437500 2.975891
259.645900 0.593077
259.854300 0.849138
260.062700 0.437952
260.271100 2.621176
260.479600 3.097604
260.688100 -0.240481
260.896500 0.565324
261.105000 2.089905
261.313500 2.621176
261.522100 3.142702
261.730600 0.712965
261.939200 2.701568
262.147700 0.487467
262.356300 0.003923
262.564900 2.536558
262.773500 0.878028
262.982200 3.198382
263.190800 0.000000
263.399500 0.433771
263.608100 3.039017
263.816800 3.034628
264.025500 -0.669380
264.234200 -0.746894
264.442900 -0.123013
264.651700 3.097604
264.860400 0.334378
265.069200 0.134699
265.278000 2.990339
265.486800 0.799800
265.695600 2.450249
265.904400 -0.180446
266.113300 -0.068503
266.322100 3.063333
266.531000 2.294466
266.739900 0.932738
266.948800 0.719266
267.157700 -0.139280
267.366600 0.948168
267.575500 2.799341
267.784500 2.550228
267.993500 0.887547
268.202400 0.229660
268.411400 0.024216
268.620500 2.761176
268.829500 -0.503236
269.038500 -0.664317
269.247600 0.151449
269.456600 2.008600
269.665700 2.965672
269.874800 0.104638
270.083900 0.317253
270.293100 0.000000
270.502200 3.034628
270.711400 2.127105
270.920500 -0.104235
271.129700 1.341974
271.338900 -0.066804
271.548100 -0.201797
271.757300 3.030195
271.966600 2.890421
272.175800 0.571746
272.385100 3.132580
272.594400 0.343446
272.803700 -0.135854
273.013000 2.799341
273.222300 -0.289222
273.431600 0.758704
273.641000 0.840567
273.850400 2.400538
274.059700 2.945961
274.269100 0.485239
274.478500 -0.219410
274.688000 0.168195
274.897400 -0.102662
275.106900 -1.406322
275.316300 3.055378
275.525800 0.461766
275.735300 0.000000
275.944800 1.322219
276.154300 -0.296284
276.363900 0.836746
276.573400 2.840106
276.783000 0.383609
276.992600 0.141092
277.202200 -0.164113
277.411800 2.587711
277.621400 -0.287818
277.831000 0.094520
278.040700 1.364623
278.250300 2.820201
278.460000 -0.167954
278.669700 2.980458
278.879400 2.432969
279.089100 2.691965
279.298900 -0.252485
279.508600 3.025715
279.718400 -0.001619
279.928100 -2.582063
280.137900 0.246423
280.347700 2.632457
280.557600 0.378883
280.767400 3.039017
280.977200 0.937658
281.187100 -3.041393
281.397000 3.089905
281.606900 0.000000
281.816800 0.503928
282.026700 -0.399461
282.236600 -0.282218
282.446600 2.924279
282.656500 -3.006466
282.866500 -0.196422
283.076500 -0.434598
283.286500 3.115278
283.496500 0.324736
283.706500 2.907411
283.916600 0.497071
284.126600 -2.092921
284.336700 0.193087
284.546800 2.587711
284.756900 0.284564
284.967000 0.228140
285.177100 -0.145397
285.387300 0.000000
285.597400 0.909823
285.807600 2.127105
286.017800 1.650793
286.228000 -2.788168
286.438200 0.289479
286.648400 0.167462
286.858700 0.407957
287.068900 2.760422
287.279200 -0.010377
287.489500 2.414973
287.699800 1.224467
287.910100 -0.066353
288.120400 3.047275
288.330800 -0.186432
288.541100 0.684568
288.751500 -0.555571
288.961900 0.089305
289.172300 -2.968950
289.382700 3.074816
289.593100 2.913284
289.803500 -2.905256
290.014000 2.679428
290.224500 3.059185
290.434900 -2.502427
290.645400 1.140451
290.855900 -0.119842
291.066500 3.146128
291.277000 1.382565
291.487500 -0.533909
291.698100 2.768638
291.908700 -0.518876
292.119300 3.059185
292.329900 0.460906
292.540500 2.728354
292.751100 -0.243861
292.961800 -2.406540
293.172400 0.174048
293.383100 0.000000
293.593800 -0.293939
293.804500 2.495544
294.015200 2.980458
294.226000 -2.927370
294.436700 -0.128030
294.647500 0.078119
294.858200 0.192861
295.069000 0.349515
295.279800 2.736397
295.490600 -3.137987
295.701500 3.059185
295.912300 0.041393
296.123200 0.299315
296.334000 2.719331
296.544900 0.910269
296.755800 3.220892
296.966700 1.510428
297.177700 2.945961
297.388600 2.935003
297.599500 2.269513
297.810500 0.232926
298.021500 -0.084285
298.232500 3.155640
298.443500 -1.203566
298.654500 0.032962
298.865600 0.209353
299.076600 -0.427392
299.287700 0.000000
299.498800 3.201124
299.709900 2.902003
299.921000 3.234517
300.132100 3.038620
300.343200 -0.027533
300.554400 2.769377
300.765500 0.096302
300.976700 0.000000
301.187900 0.546980
301.399100 -0.289881
301.610300 3.129368
301.821500 0.507406
302.032800 0.247155
302.244100 2.716421
302.455300 0.047999
302.666600 -0.047256
302.877900 0.152990
303.089200 0.714482
303.300600 3.209783
303.511900 0.941428
303.723300 2.924279
303.934600 0.651799
304.146000 -1.823288
304.357400 2.432969
304.568800 0.518576
304.780300 3.192289
304.991700 0.343708
305.203100 -0.376518
305.414600 3.198382
305.626100 2.294466
305.837600 0.030862
306.049100 2.775974
306.260600 3.051153
306.472200 -0.865077
306.683700 0.838751
306.895300 -0.779113
307.106900 0.037488
307.318400 3.034628
307.530100 1.803516
307.741700 2.806180
307.953300 3.332236
308.165000 0.000000
308.376600 0.296340
308.588300 3.242293
308.800000 3.034227
309.011700 1.853381
309.223400 0.092785
309.435100 2.450249
309.646900 0.511726
309.858600 0.173041
310.070400 0.404769
310.282200 -1.025598
310.494000 0.958750
310.705800 0.610696
310.917600 3.047275
311.129500 0.051938
311.341300 0.358427
311.553200 -0.030975
311.765100 0.089644
311.977000 0.494342
312.188900 0.474184
312.400800 3.030600
312.612700 -0.125150
312.824700 3.292034
313.036600 -0.035271
313.248600 1.688582
313.460600 0.823474
313.672600 0.431225
313.884600 -0.157670
314.096700 -0.406583
314.308700 0.434569
314.520800 0.436442
314.732800 0.754417
314.944900 0.477742
315.157000 0.831380
315.369200 1.053402
315.581300 0.113836
315.793400 -0.252044
316.005600 0.088355
316.217700 0.395148
316.429900 3.525174
316.642100 3.168203
316.854300 0.387908
317.066600 3.463445
317.278800 0.675988
317.491100 3.192289
317.703300 3.336260
317.915600 0.794019
318.127900 0.143212
318.340200 3.097604
318.552500 0.361511
318.764900 0.211879
318.977200 3.437592
319.189600 0.854104
319.401900 0.822019
319.614300 1.012023
319.826700 1.016197
320.039200 3.358886
320.251600 1.368914
320.464000 0.595108
320.676500 3.265290
320.889000 -0.116681
321.101400 0.607737
321.313900 3.310268
321.526500 0.600346
321.739000 3.376577
321.951500 0.845537
322.164100 0.153943
322.376600 1.284356
322.589200 3.362859
322.801800 3.327767
323.014400 0.673443
323.227000 0.237274
323.439700 0.731570
323.652300 3.471292
323.865000 1.345365
324.077700 3.558108
324.290400 3.310268
324.503100 3.378580
324.715800 0.750794
324.928500 0.952941
325.141200 3.384174
325.354000 0.701810
325.566800 0.983334
325.779600 0.331960
325.992400 3.314710
326.205200 3.542576
326.418000 3.474362
326.630800 0.278947
326.843700 0.801918
327.056600 0.810613
327.269400 0.811668
327.482300 0.272635
327.695200 0.717578
327.908200 0.377097
328.121100 0.404324
328.334000 3.554126
328.547000 1.134261
328.760000 1.689787
328.973000 3.578983
329.186000 0.915951
329.399000 3.445915
329.612000 0.403915
329.825100 0.196457
330.038100 3.534534
330.251200 3.572872
330.464300 0.616905
330.677400 0.862429
330.890500 0.998500
331.103600 0.669136
331.316700 0.760015
331.529900 3.357268
331.743100 1.255499
331.956200 0.973810
332.169400 0.589724
332.382600 1.344785
332.595900 1.072214
332.809100 3.604766
333.022300 0.492145
333.235600 1.604085
333.448900 1.248694
333.662200 0.611995
333.875500 1.017971
334.088800 0.380264
334.302100 0.761884
334.515400 3.647089
334.728800 1.014505
334.942200 3.626956
335.155500 0.686479
335.368900 3.756864
335.582300 0.867824
335.795800 0.525905
336.009200 0.427643
336.222700 2.022784
336.436100 1.037729
336.649600 0.902188
336.863100 1.203297
337.076600 0.893273
337.290100 1.073002
337.503600 3.672098
337.717200 0.726269
337.930700 3.722716
338.144300 1.039885
338.357900 0.839386
338.571500 0.958273
338.785100 1.419904
338.998700 1.506734
339.212400 3.815312
339.426000 0.646565
339.639700 3.667266
339.853300 3.765594
340.067000 1.372172
340.280700 0.724201
340.494500 3.790074
340.708200 0.721468
340.921900 0.818007
341.135700 1.028140
341.349500 0.681661
341.563300 0.617772
341.777100 0.600873
341.990900 0.937404
342.204700 1.343286
342.418500 0.881119
342.632400 3.830460
342.846300 0.758177
343.060100 3.693023
343.274000 0.619291
343.487900 3.871748
343.701900 3.795185
343.915800 1.320265
344.129700 0.777745
344.343700 0.533977
344.557700 1.084055
344.771700 3.809694
344.985700 1.412075
345.199700 3.834484
345.413700 0.550598
345.627700 3.783332
345.841800 3.870521
346.055900 0.507966
346.269900 0.674408
346.484000 3.898615
346.698100 0.819220
346.912300 1.377583
347.126400 0.683295
347.340600 3.899164
347.554700 0.895151
347.768900 3.886321
347.983100 3.942058
348.197300 1.448337
348.411500 1.773661
348.625700 1.160896
348.840000 3.898615
349.054200 1.068753
349.268500 1.059128
349.482800 3.888011
349.697100 3.921634
349.911400 1.701741
350.125700 1.093667
350.340000 1.830659
350.554400 1.027982
350.768700 1.068951
350.983100 1.129652
351.197500 1.357767
351.411900 1.057067
351.626300 3.954918
351.840700 0.859570
352.055200 3.931966
352.269600 0.828173
352.484100 1.921468
352.698600 0.924493
352.913100 0.890391
353.127600 0.889886
353.342100 2.013768
353.556600 1.711412
353.771200 4.007534
353.985800 3.943643
354.200300 1.157843
354.414900 3.981093
354.629500 0.990689
354.844100 1.325887
355.058800 3.971879
355.273400 0.727339
355.488100 3.989138
355.702700 0.994061
355.917400 3.938920
356.132100 1.367167
356.346800 3.982000
356.561500 0.765566
356.776300 0.932935
356.991000 1.201117
357.205800 1.381959
357.420600 1.060832
357.635300 3.982045
357.850100 4.018617
358.065000 1.053915
358.279800 0.856045
358.494600 3.959995
358.709500 4.012879
358.924300 0.978413
359.139200 0.958229
359.354100 0.788173
359.569000 1.566625
359.783900 3.987264
359.998900 1.140560
360.213800 4.019947
360.428800 1.299563
360.643800 3.982497
360.858700 1.632567
361.073700 0.840019
361.288800 4.042142
361.503800 1.850360
361.718800 0.706500
361.933900 0.985248
362.148900 1.214093
362.364000 1.100951
362.579100 0.997265
362.794200 1.375620
363.009300 1.299195
363.224500 0.989814
363.439600 1.655065
363.654800 4.034989
363.869900 1.998781
364.085100 1.231778
364.300300 1.051640
364.515500 1.642561
364.730800 0.681008
364.946000 1.198275
365.161200 1.399965
365.376500 3.785330
365.591800 4.054805
365.807100 4.020403
366.022400 1.068335
366.237700 1.275248
366.453000 1.377411
366.668400 1.648466
366.883700 1.415274
367.099100 1.274849
367.314500 4.085968
367.529900 1.443145
367.745300 1.057012
367.960700 4.089375
368.176100 1.187815
368.391600 4.101850
368.607000 1.118945
368.822500 2.468448
369.038000 1.743633
369.253500 1.473039
369.469000 1.350666
369.684500 4.136974
369.900100 0.962421
370.115600 4.067926
370.331200 1.149434
370.546800 1.330954
370.762400 1.406990
370.978000 4.107990
371.193600 1.030999
371.409200 4.124798
371.624900 0.806408
371.840500 1.678702
372.056200 4.129561
372.271900 0.956554
372.487600 1.211234
372.703300 4.129915
372.919000 1.250460
373.134800 4.137671
373.350500 1.164685
373.566300 1.597130
373.782000 1.079722
373.997800 0.915192
374.213600 1.285982
374.429400 1.323757
374.645300 1.034645
374.861100 1.726408
375.077000 4.192735
375.292800 1.312511
375.508700 1.138889
375.724600 4.210586
375.940500 4.218404
376.156400 1.421682
376.372400 4.242367
376.588300 4.218667
376.804300 4.234720
377.020300 4.247581
377.236200 1.088064
377.452200 1.687753
377.668200 4.261620
377.884300 2.027362
378.100300 4.253265
378.316400 2.008578
378.532400 1.739549
378.748500 4.301356
378.964600 1.271060
379.180700 1.640008
379.396800 1.154133
379.612900 4.277861
379.829100 2.075398
380.045200 1.528364
380.261400 1.558595
380.477600 4.319085
380.693800 1.573438
380.910000 4.341138
381.126200 1.359804
381.342400 1.531791
381.558700 1.370654
381.774900 4.288607
381.991200 1.076175
382.207500 4.314668
382.423800 1.207756
382.640100 1.459598
382.856400 4.341336
383.072800 1.075472
383.289100 1.091687
383.505500 1.419004
383.721900 4.350442
383.938200 4.339471
384.154600 1.303706
384.371100 1.467960
384.587500 1.518203
384.803900 1.809382
385.020400 1.367396
385.236800 4.356332
385.453300 4.374308
385.669800 1.510113
385.886300 4.360745
386.102800 1.215546
386.319400 1.366399
386.535900 4.371972
386.752500 4.388581
386.969000 1.865246
387.185600 1.198069
387.402200 4.400210
387.618800 1.334993
387.835500 4.396356
388.052100 1.944964
388.268700 2.172658
388.485400 1.900333
388.702100 1.250851
388.918800 4.402382
389.135500 4.421044
389.352200 4.400383
389.568900 1.280963
389.785600 1.338015
390.002400 1.281733
390.219200 1.170987
390.435900 1.637773
390.652700 1.139383
390.869500 1.521808
391.086300 1.233837
391.303200 1.406742
391.520000 1.013195
391.736900 1.435346
391.953700 1.366218
392.170600 4.445028
392.387500 1.369710
392.604400 1.092228
392.821300 1.146598
393.038300 1.414973
393.255200 1.362373
393.472200 1.071374
393.689100 1.370186
393.906100 1.053203
394.123100 0.853204
394.340100 1.690943
394.557200 1.418461
394.774200 1.171276
394.991200 1.122854
395.208300 1.357138
395.425400 0.945201
395.642500 1.330152
395.859600 0.921375
396.076700 1.087304
396.293800 1.181337
396.510900 1.012926
396.728100 0.958596
396.945300 1.350692
397.162400 0.820223
397.379600 1.067263
397.596800 1.052823
397.814000 0.924170
398.031300 0.849766
398.248500 0.956818
398.465800 1.109907
398.683000 1.110695
398.900300 0.915251
399.117600 1.066984
399.334900 0.963798
399.552200 0.754623
399.769600 0.856234
399.986900 0.800689
400.204300 0.854858
400.421600 0.783973
400.639000 0.801993
400.856400 0.703244
401.073800 0.859661
401.291200 0.965642
401.508700 0.876763
401.726100 0.867055
401.943600 0.881984
402.161000 0.733654
402.378500 0.768215
402.596000 0.764805
402.813500 0.823847
403.031000 0.745033
403.248600 0.629378
403.466100 0.799876
403.683700 0.698073
403.901300 0.724277
404.118900 0.756451
404.336500 0.696430
404.554100 0.706235
404.771700 0.763704
404.989300 0.660289
405.207000 0.737878
405.424600 0.643879
405.642300 0.680955
405.860000 0.674986
406.077700 0.775361
406.295400 0.607595
406.513100 0.723946
406.730900 0.557355
406.948600 0.692763
407.166400 0.699485
407.384200 0.665948
407.602000 0.612008
407.819800 0.551401
408.037600 0.645990
408.255400 0.639789
408.473300 0.568116
408.691100 0.623439
408.909000 0.554987
409.126900 0.545453
409.344800 0.543044
409.562700 0.636169
409.780600 0.594785
409.998500 0.615199
410.216500 0.534739
410.434400 0.516448
410.652400 0.529831
410.870400 0.610355
411.088400 0.533673
411.306400 0.562167
411.524400 0.546635
411.742400 0.552136
411.960500 0.536136
412.178500 0.577229
412.396600 0.495878
412.614700 0.558642
412.832800 0.472555
413.050900 0.531969
413.269000 0.482346
413.487100 0.522883
413.705300 0.475263
413.923400 0.518572
414.141600 0.497375
414.359800 0.560839
414.578000 0.486921
414.796200 0.451956
415.014400 0.479888
415.232600 0.515800
415.450900 0.469623
415.669200 0.450371
415.887400 0.565616
416.105700 0.417398
416.324000 0.476164
416.542300 0.403788
416.760600 0.494956
416.979000 0.482149
417.197300 0.416370
417.415700 0.422545
417.634100 0.378050
417.852400 0.440386
418.070800 0.427471
418.289300 0.457538
418.507700 0.421684
418.726100 0.461862
418.944600 0.425021
419.163000 0.443323
419.381500 0.445020
419.600000 0.395569
419.818500 0.438765
420.037000 0.411944
420.255500 0.403353
420.474100 0.451032
420.692600 0.400091
420.911200 0.384882
421.129800 0.410495
421.348300 0.404920
421.566900 0.378659
421.785600 0.379676
422.004200 0.364827
422.222800 0.453919
422.441500 0.401578
422.660100 0.413081
422.878800 0.413477
423.097500 0.378718
423.316200 0.379172
423.534900 0.358594
423.753600 0.363880
423.972400 0.348734
424.191100 0.380760
424.409900 0.370009
424.628700 0.312146
424.847500 0.377249
425.066300 0.355971
425.285100 0.369758
425.503900 0.337517
425.722800 0.355788
425.941600 0.364242
426.160500 0.346439
426.379300 0.408011
426.598200 0.369627
426.817100 0.268580
427.036100 0.409370
427.255000 0.346523
427.473900 0.397085
427.692900 0.362496
427.911800 0.352398
428.130800 0.324644
428.349800 0.338677
428.568800 0.312926
428.787800 0.340584
429.006800 0.324957
429.225900 0.420029
429.444900 0.364658
429.664000 0.356386
429.883100 0.344453
430.102200 0.352704
430.321300 0.355425
430.540400 0.381610
430.759500 0.322128
430.978700 0.323761
431.197800 0.327693
431.417000 0.321770
431.636200 0.291591
431.855300 0.262450
432.074500 0.269228
432.293800 0.298266
432.513000 0.326078
432.732200 0.376790
432.951500 0.287802
433.170700 0.348947
433.390000 0.306942
433.609300 0.400105
433.828600 0.353875
434.047900 0.347476
434.267300 0.296003
434.486600 0.286760
434.705900 0.300032
434.925300 0.320788
435.144700 0.320266
435.364100 0.321076
435.583500 0.257842
435.802900 0.345881
436.022300 0.278133
436.241800 0.347708
436.461200 0.335333
436.680700 0.320005
436.900100 0.310102
437.119600 0.346722
437.339100 0.331622
437.558600 0.317199
437.778200 0.310250
437.997700 0.307328
438.217300 0.329392
438.436800 0.329621
438.656400 0.359607
438.876000 0.319575
439.095600 0.310659
439.315200 0.333097
439.534800 0.326476
439.754500 0.309497
439.974100 0.343280
440.193800 0.360676
440.413500 0.338625
440.633100 0.310679
440.852800 0.312457
441.072500 0.372405
441.292300 0.362063
441.512000 0.319233
441.731800 0.363200
441.951500 0.297704
442.171300 0.330718
442.391100 0.346986
442.610900 0.320234
442.830700 0.318028
443.050500 0.308560
443.270300 0.372743
443.490200 0.293951
443.710100 0.331242
443.929900 0.320602
444.149800 0.361789
444.369700 0.314623
444.589600 0.341753
444.809500 0.353811
445.029500 0.365563
445.249400 0.315692
445.469400 0.339927
445.689400 0.359732
445.909300 0.334517
446.129300 0.340695
446.349300 0.363543
446.569400 0.363020
446.789400 0.371106
447.009400 0.354970
447.229500 0.376723
447.449600 0.320048
447.669600 0.347200
447.889700 0.344490
448.109800 0.318801
448.330000 0.327630
448.550100 0.402573
448.770200 0.370072
448.990400 0.376476
449.210600 0.373691
449.430700 0.394762
449.650900 0.378730
449.871100 0.357857
450.091400 0.387683
450.311600 0.378535
450.531800 0.370080
450.752100 0.383262
450.972400 0.357459
451.192600 0.405924
451.412900 0.375364
451.633200 0.383337
451.853500 0.384565
452.073900 0.405567
452.294200 0.372134
452.514600 0.384194
452.734900 0.402890
452.955300 0.404062
453.175700 0.391098
453.396100 0.379387
453.616500 0.411072
453.836900 0.418199
454.057400 0.395918
454.277800 0.401540
454.498300 0.372226
454.718800 0.424788
454.939300 0.413563
455.159700 0.452712
455.380300 0.416775
455.600800 0.405331
455.821300 0.445647
456.041900 0.422581
456.262400 0.439438
456.483000 0.460191
456.703600 0.387522
456.924200 0.474151
457.144800 0.410077
457.365400 0.504198
457.586000 0.465636
457.806700 0.460292
458.027400 0.466806
458.248000 0.449475
458.468700 0.502696
458.689400 0.440465
458.910100 0.440283
459.130800 0.500907
459.351600 0.441386
459.572300 0.430885
459.793100 0.505221
460.013800 0.443743
460.234600 0.477468
460.455400 0.479437
460.676200 0.518175
460.897000 0.495556
461.117800 0.492169
461.338700 0.510760
461.559500 0.509930
461.780400 0.484604
462.001300 0.510197
462.222200 0.436421
462.443100 0.528887
462.664000 0.502276
462.884900 0.487626
463.105900 0.489953
463.326800 0.560813
463.547800 0.535042
463.768700 0.527797
463.989700 0.553818
464.210700 0.514418
464.431700 0.572716
464.652800 0.614139
464.873800 0.547339
465.094800 0.554240
465.315900 0.567894
465.537000 0.584482
465.758100 0.607750
465.979200 0.603573
466.200300 0.586981
466.421400 0.552001
466.642500 0.632989
466.863700 0.656661
467.084800 0.608213
467.306000 0.618873
467.527200 0.614572
467.748400 0.591940
467.969600 0.605576
468.190800 0.647732
468.412000 0.653889
468.633300 0.620075
468.854500 0.575965
469.075800 0.594322
469.297000 0.633994
469.518300 0.599308
469.739600 0.619338
469.961000 0.574400
470.182300 0.554976
470.403600 0.618834
470.625000 0.607403
470.846300 0.691217
471.067700 0.640188
471.289100 0.669749
471.510500 0.619228
471.731900 0.715421
471.953300 0.670738
472.174800 0.660436
472.396200 0.654815
472.617700 0.761741
472.839100 0.652304
473.060600 0.760416
473.282100 0.698388
473.503600 0.746521
473.725100 0.664440
473.946700 0.759949
474.168200 0.739679
474.389800 0.794394
474.611300 0.728189
474.832900 0.798669
475.054500 0.767664
475.276100 0.785390
475.497700 0.759695
475.719300 0.780478
475.941000 0.720308
476.162600 0.685763
476.384300 0.774402
476.606000 0.767014
476.827700 0.692887
477.049400 0.741830
477.271100 0.781902
477.492800 0.868755
477.714500 0.785820
477.936300 0.978182
478.158000 0.726661
478.379800 0.840950
478.601600 0.849738
478.823400 0.842666
479.045200 0.793023
479.267000 0.856872
479.488800 0.792910
479.710700 0.846282
479.932500 0.785068
480.154400 0.898352
480.376300 0.857190
480.598200 0.848659
480.820100 0.824255
481.042000 0.867179
481.263900 0.856075
481.485900 0.841682
481.707800 0.877622
481.929800 0.884943
482.151700 0.915198
482.373700 0.922588
482.595700 0.900401
482.817700 0.886173
483.039800 0.827735
483.261800 0.905249
483.483800 0.907062
483.705900 0.878490
483.928000 0.886027
484.150100 0.883302
484.372100 0.975588
484.594300 0.892285
484.816400 0.892296
485.038500 0.934956
485.260600 1.014729
485.482800 1.085410
485.705000 1.197667
485.927100 1.164815
486.149300 1.030751
486.371500 0.965983
486.593700 0.892685
486.816000 0.915087
487.038200 0.982741
487.260500 0.977956
487.482700 0.940926
487.705000 0.932454
487.927300 0.994750
488.149600 1.071435
488.371900 1.026797
488.594200 0.887888
488.816500 1.058148
489.038900 1.034090
489.261200 0.978878
489.483600 0.979556
489.706000 1.090136
489.928400 1.036221
490.150800 1.014672
490.373200 1.051657
490.595600 1.048176
490.818000 1.100616
491.040500 0.988286
491.263000 1.004985
491.485400 0.954671
491.707900 1.048486
491.930400 1.071442
492.152900 1.212014
492.375500 0.985174
492.598000 1.015420
492.820500 1.172676
493.043100 1.121682
493.265700 1.171288
493.488200 1.095773
493.710800 0.941200
493.933400 1.142735
494.156100 0.941633
494.378700 1.298081
494.601300 1.364369
494.824000 1.249204
495.046600 1.099971
495.269300 1.142676
495.492000 1.126814
495.714700 1.120360
495.937400 1.149599
496.160100 1.130964
496.382900 1.356316
496.605600 1.196937
496.828400 1.149631
497.051100 1.133547
497.273900 1.121397
497.496700 1.126332
497.719500 1.028958
497.942300 1.043574
498.165200 1.012753
498.388000 1.280955
498.610900 1.168513
498.833700 1.064527
499.056600 1.138498
499.279500 1.066725
499.502400 1.028018
499.725300 1.340926
499.948200 1.062913
500.171200 1.123380
500.394100 1.184685
500.617100 1.194140
500.840000 1.003964
501.063000 1.231156
501.286000 1.262142
501.509000 1.158943
501.732000 1.257870
501.955100 1.323807
502.178100 1.037638
502.401200 1.436000
502.624200 1.117715
502.847300 1.249452
503.070400 1.178617
503.293500 1.147690
503.516600 1.133986
503.739700 1.093542
503.962800 1.150762
504.186000 1.144506
504.409200 1.219427
504.632300 1.094129
504.855500 1.100196
505.078700 1.234985
505.301900 1.155175
505.525100 1.248639
505.748300 1.109607
505.971600 1.270098
506.194800 1.279877
506.418100 1.437199
506.641400 1.145722
506.864700 1.172849
507.088000 1.146012
507.311300 1.333912
507.534600 1.416387
507.757900 1.267163
507.981300 1.061578
508.204600 1.319019
508.428000 1.171077
508.651400 1.377786
508.874800 1.300803
509.098200 1.229747
509.321600 1.197565
509.545000 1.177817
509.768500 1.205919
509.991900 1.204324
510.215400 1.086257
510.438800 1.337151
510.662300 1.032507
510.885800 1.241762
511.109300 1.059984
511.332900 1.205625
511.556400 1.204309
511.779900 1.308586
512.003500 1.273142
512.227000 1.095770
512.450600 1.012085
512.674200 1.147199
512.897800 1.399838
513.121400 1.311243
513.345100 0.978600
513.568700 1.257531
513.792300 1.006506
514.016000 1.172088
514.239700 1.139423
514.463400 1.208585
514.687100 1.080266
514.910800 1.167960
515.134500 1.150902
515.358200 1.628975
515.581900 1.009656
515.805700 1.157241
516.029500 1.042887
516.253200 1.086767
516.477000 1.004891
516.700800 1.445511
516.924600 1.089746
517.148500 1.156982
517.372300 1.304562
517.596100 1.213544
517.820000 1.283311
518.043900 1.223470
518.267700 0.965759
518.491600 1.038976
518.715500 1.093494
518.939500 1.132905
519.163400 1.503865
519.387300 1.095510
519.611300 1.003008
519.835200 1.277712
520.059200 1.202167
520.283200 1.021376
520.507200 1.052600
520.731200 1.079319
520.955200 1.167261
521.179200 1.094855
521.403300 1.020644
521.627300 0.869113
521.851400 1.083419
522.075500 1.248679
522.299600 1.016782
522.523700 1.193187
522.747800 0.935808
522.971900 0.940963
523.196000 1.025671
523.420200 0.994398
523.644300 0.976165
523.868500 0.877368
524.092700 1.132516
524.316900 0.975225
524.541100 0.972420
524.765300 1.046511
524.989500 1.026108
525.213800 0.819514
525.438000 0.942142
525.662300 0.977237
525.886500 0.991359
526.110800 0.905523
526.335100 0.870924
526.559400 0.919445
526.783700 0.933270
527.008100 0.998925
527.232400 0.883197
527.456800 0.947632
527.681100 1.098270
527.905500 0.886383
528.129900 0.920287
528.354300 0.849222
528.578700 0.996812
528.803100 0.862335
529.027600 0.991012
529.252000 0.877079
529.476500 0.874750
529.700900 0.936256
529.925400 0.860963
530.149900 0.858494
530.374400 0.833260
530.598900 0.821640
530.823400 0.878864
531.048000 0.944059
531.272500 0.827704
531.497100 0.856565
531.721700 0.826564
531.946200 0.793107
532.170800 0.895205
532.395400 0.871250
532.620000 1.009703
532.844700 0.915624
533.069300 0.950786
533.294000 0.769210
533.518600 0.980739
533.743300 0.743119
533.968000 0.790311
534.192700 0.765482
534.417400 0.815216
534.642100 0.825917
534.866800 0.794580
535.091600 0.740953
535.316300 0.747593
535.541100 0.828674
535.765900 0.715396
535.990700 0.702192
536.215500 0.721277
536.440300 0.662573
536.665100 0.754448
536.889900 0.658009
537.114800 0.698090
537.339600 0.692405
537.564500 0.771312
537.789400 0.729977
538.014300 0.676454
538.239200 0.715188
538.464100 0.757352
538.689000 0.705643
538.913900 0.638385
539.138900 0.719772
539.363800 0.615002
539.588800 0.755457
539.813800 0.685861
540.038800 0.649888
540.263800 0.649208
540.488800 0.679287
540.713800 0.674173
540.938900 0.621263
541.163900 0.662147
541.389000 0.598870
541.614000 0.684080
541.839100 0.575312
542.064200 0.604384
542.289300 0.682568
542.514400 0.683016
542.739600 0.588931
542.964700 0.644736
543.189900 0.554507
543.415000 0.573055
543.640200 0.592987
543.865400 0.580675
544.090600 0.561722
544.315800 0.572790
544.541000 0.556503
544.766200 0.519394
544.991500 0.536719
545.216700 0.545383
545.442000 0.566034
545.667300 0.525065
545.892600 0.466371
546.117900 0.490344
546.343200 0.506511
546.568500 0.544505
546.793800 0.516092
547.019200 0.528370
547.244500 0.484324
547.469900 0.548129
547.695300 0.536286
547.920600 0.597941
548.146000 0.515591
548.371500 0.488474
548.596900 0.437001
548.822300 0.457245
549.047800 0.416263
549.273200 0.458074
549.498700 0.412775
549.724200 0.447184
549.949600 0.421242
550.175100 0.412379
550.400700 0.412992
550.626200 0.451158
550.851700 0.429593
551.077300 0.471607
551.302800 0.451011
551.528400 0.409396
551.754000 0.435243
551.979600 0.436277
552.205200 0.419133
552.430800 0.441045
552.656400 0.370873
552.882000 0.407135
553.107700 0.397071
553.333300 0.384336
553.559000 0.376558
553.784700 0.352304
554.010400 0.392891
554.236100 0.376242
554.461800 0.323485
554.687500 0.373440
554.913200 0.322109
555.139000 0.402175
555.364800 0.365433
555.590500 0.344121
555.816300 0.321966
556.042100 0.363087
556.267900 0.334643
556.493700 0.313314
556.719500 0.327903
556.945400 0.307706
557.171200 0.367936
557.397100 0.307981
557.623000 0.297731
557.848800 0.293749
558.074700 0.285905
558.300600 0.275836
558.526600 0.240115
558.752500 0.242562
558.978400 0.264426
559.204400 0.275488
559.430300 0.291349
559.656300 0.284596
559.882300 0.262985
560.108300 0.288760
560.334300 0.280433
560.560300 0.284931
560.786300 0.282548
561.012400 0.265481
561.238400 0.261756
561.464500 0.252141
561.690500 0.255134
561.916600 0.248156
562.142700 0.222814
562.368800 0.267824
562.594900 0.264358
562.821100 0.261334
563.047200 0.240212
563.273300 0.257312
563.499500 0.216317
563.725700 0.276543
563.951900 0.210006
564.178100 0.222280
564.404300 0.239961
564.630500 0.241159
564.856700 0.218787
565.082900 0.228028
565.309200 0.212190
565.535500 0.211615
565.761700 0.204249
565.988000 0.206533
566.214300 0.195947
566.440600 0.173614
566.666900 0.190811
566.893200 0.221529
567.119600 0.223884
567.345900 0.218845
567.572300 0.226213
567.798700 0.200642
568.025000 0.173070
568.251400 0.187938
568.477800 0.186443
568.704300 0.218682
568.930700 0.185326
569.157100 0.191424
569.383600 0.188996
569.610000 0.207123
569.836500 0.217171
570.063000 0.190529
570.289500 0.178633
570.516000 0.178887
570.742500 0.168301
570.969000 0.176930
571.195600 0.187975
571.422100 0.171596
571.648700 0.150607
571.875200 0.162995
572.101800 0.159977
572.328400 0.152095
572.555000 0.112029
572.781600 0.107414
573.008200 0.138249
573.234900 0.186486
573.461500 0.181701
573.688200 0.173341
573.914900 0.157243
574.141500 0.153082
574.368200 0.160055
574.594900 0.147472
574.821600 0.127915
575.048400 0.142368
575.275100 0.139208
575.501800 0.128113
575.728600 0.106717
575.955400 0.101939
576.182100 0.131293
576.408900 0.128690
576.635700 0.138691
576.862600 0.142769
577.089400 0.121953
577.316200 0.122613
577.543100 0.135541
577.769900 0.156087
577.996800 0.129105
578.223700 0.100457
578.450500 0.085968
578.677400 0.085072
578.904400 0.086937
579.131300 0.086169
579.358200 0.098396
579.585100 0.118555
579.812100 0.100666
580.039100 0.097433
580.266000 0.095260
580.493000 0.096897
580.720000 0.079379
580.947000 0.096290
581.174100 0.160654
581.401100 0.173137
581.628100 0.135360
581.855200 0.097140
582.082200 0.079581
582.309300 0.067405
582.536400 0.055027
582.763500 0.034926
582.990600 0.046739
583.217700 0.040091
583.444900 0.044830
583.672000 0.050840
583.899100 0.064459
584.126300 0.075600
584.353500 0.076556
584.580700 0.069251
584.807900 0.098319
585.035100 0.110066
585.262300 0.093558
585.489500 0.079260
585.716700 0.064941
585.944000 0.058503
586.171300 0.041252
586.398500 0.043336
586.625800 0.051217
586.853100 0.078567
587.080400 0.088088
587.307700 0.083275
587.535000 0.083488
587.762400 0.056713
587.989700 0.037996
588.217100 0.037304
588.444500 0.052684
588.671800 0.042122
588.899200 0.037046
589.126600 0.020554
589.354000 0.038383
589.581500 0.039131
589.808900 0.060892
590.036300 0.054001
590.263800 0.038410
590.491300 0.030900
590.718700 0.041401
590.946200 0.032289
591.173700 0.035634
591.401200 0.049266
591.628800 0.067399
591.856300 0.058543
592.083800 0.035311
592.311400 0.074902
592.538900 0.104273
592.766500 0.121805
592.994100 0.097427
593.221700 0.069337
593.449300 0.046398
593.676900 0.042621
593.904600 0.043279
594.132200 0.020833
594.359800 0.018413
594.587500 0.040084
594.815200 0.074257
595.042900 0.085802
595.270500 0.057635
595.498300 0.032067
595.726000 0.027955
595.953700 0.014204
596.181400 0.021733
596.409200 0.018326
596.636900 0.017475
596.864700 0.046373
597.092500 0.048923
597.320300 0.061413
597.548100 0.055811
597.775900 0.032192
598.003700 0.026973
598.231500 0.023255
598.459400 0.056357
598.687200 0.095028
598.915100 0.106273
599.143000 0.071548
599.370900 0.044248
599.598800 0.038297
599.826700 0.045874
600.054600 0.064063
600.282500 0.052571
600.510500 0.028776
600.738400 0.028027
600.966400 0.043869
601.194400 0.039557
601.422300 0.023051
601.650300 0.016693
601.878300 0.016689
602.106400 0.030538
602.334400 0.037765
602.562400 0.035033
602.790500 0.041271
603.018500 0.037738
603.246600 0.052125
603.474700 0.048491
603.702800 0.036520
603.930900 0.026235
604.159000 0.014585
604.387100 0.019767
604.615200 0.015555
604.843400 0.015505
605.071500 0.024011
605.299700 0.035330
605.527900 0.037185
605.756100 0.043861
605.984300 0.034257
606.212500 0.009807
606.440700 -0.009847
606.668900 -0.009621
606.897200 0.018715
607.125400 0.027386
607.353700 0.028460
607.581900 0.022073
607.810200 0.022678
608.038500 0.011674
608.266800 0.005695
608.495100 0.010120
608.723500 -0.000539
608.951800 0.014089
609.180100 0.000790
609.408500 0.006207
609.636900 0.005200
609.865300 0.039930
610.093600 0.057777
610.322000 0.037217
610.550500 0.003746
610.778900 -0.001966
611.007300 0.012357
611.235700 0.024646
611.464200 0.026093
611.692700 0.017204
611.921100 0.019543
612.149600 0.018903
612.378100 0.013917
612.606600 0.023298
612.835100 0.024539
613.063700 0.023151
613.292200 0.007895
613.520800 0.008296
613.749300 0.025480
613.977900 0.025233
614.206500 0.021831
614.435100 0.028316
614.663700 0.012685
614.892300 0.008990
615.120900 0.015097
615.349500 0.031360
615.578200 0.038006
615.806800 0.023871
616.035500 0.005078
616.264200 -0.008074
616.492900 0.009003
616.721600 0.009908
616.950300 0.012618
617.179000 0.008494
617.407700 0.012988
617.636500 0.011341
617.865200 0.017930
618.094000 0.023092
618.322700 -0.005812
618.551500 -0.021425
618.780300 -0.020836
619.009100 -0.008750
619.237900 0.019579
619.466700 0.016746
619.695600 0.014820
619.924400 0.039536
620.153300 0.030312
620.382100 0.024351
620.611000 -0.004739
620.839900 -0.017804
621.068800 -0.042909
621.297700 -0.031864
621.526600 -0.000638
621.755600 0.032973
621.984500 0.038424
622.213500 0.024546
622.442400 0.014903
622.671400 0.041434
622.900400 0.023336
623.129400 0.024119
623.358400 0.019036
623.587400 0.019291
623.816400 -0.012377
624.045400 0.010816
624.274500 0.014954
624.503500 0.012378
624.732600 0.006341
624.961700 0.016916
625.190800 -0.019325
625.419900 -0.008777
625.649000 -0.004117
625.878100 -0.001006
626.107200 -0.003986
626.336400 -0.003474
626.565500 -0.014972
626.794700 0.001576
627.023800 -0.000068
627.253000 -0.000079
627.482200 0.002323
627.711400 0.001788
627.940600 -0.015606
628.169800 -0.023444
628.399100 -0.023421
628.628300 -0.007222
628.857600 0.013402
629.086800 0.013729
629.316100 0.036269
629.545400 0.013950
629.774700 0.016049
630.004000 0.025203
630.233300 -0.010047
630.462600 0.004184
630.692000 -0.013915
630.921300 -0.003956
631.150700 -0.003768
631.380100 0.017991
631.609400 0.010588
631.838800 0.018727
632.068200 0.005203
632.297600 0.005871
632.527100 -0.026237
632.756500 -0.026880
632.985900 -0.015668
633.215400 0.018007
633.444800 -0.014948
633.674300 0.022399
633.903800 -0.012292
634.133300 -0.003421
634.362800 0.004738
634.592300 -0.003622
634.821800 -0.007867
635.051400 0.007515
635.280900 -0.017626
635.510500 -0.004585
635.740000 0.032962
635.969600 0.017962
636.199200 0.009663
636.428800 0.007030
636.658400 0.013476
636.888000 0.006822
637.117700 -0.010902
637.347300 -0.010172
637.577000 0.020046
637.806600 0.002163
638.036300 0.019046
638.266000 -0.009678
638.495700 0.040428
638.725400 0.008957
638.955100 -0.007506
639.184800 -0.003112
639.414500 -0.021073
639.644300 -0.012472
639.874000 -0.032475
640.103800 -0.010321
640.333600 -0.003486
640.563300 -0.016310
640.793100 0.012584
641.022900 0.014765
641.252800 -0.010551
641.482600 0.025457
641.712400 -0.003588
641.942300 0.009387
642.172100 0.012204
642.402000 0.006090
642.631900 -0.021441
642.861700 0.023174
643.091600 0.015753
643.321600 -0.010682
643.551500 -0.045387
643.781400 0.003150
644.011300 -0.034025
644.241300 -0.021611
644.471200 0.011082
644.701200 -0.012146
644.931200 0.002269
645.161200 -0.017604
645.391200 0.024699
645.621200 -0.007458
645.851200 0.000083
646.081200 -0.015485
646.311300 0.008524
646.541300 0.013857
646.771400 0.019911
647.001500 0.014100
647.231600 0.004289
647.461600 0.029350
647.691800 0.034148
647.921900 0.004020
648.152000 0.012324
648.382100 0.027412
648.612300 0.019525
648.842400 0.001410
649.072600 0.044873
649.302800 0.011572
649.532900 0.004415
649.763100 -0.020195
649.993300 -0.000860
650.223600 -0.001881
650.453800 -0.003094
650.684000 -0.012488
650.914300 -0.026242
651.144500 0.005368
651.374800 0.026158
651.605100 0.013066
651.835400 0.017391
652.065700 0.005993
652.296000 0.002362
652.526300 0.000890
652.756600 -0.011709
652.987000 0.016058
653.217300 -0.005705
653.447700 -0.021391
653.678000 0.018078
653.908400 -0.013509
654.138800 0.033844
654.369200 0.027153
654.599600 0.049732
654.830000 0.051929
655.060500 0.179924
655.290900 0.467746
655.521300 0.468837
655.751800 0.291517
655.982300 0.028207
656.212800 0.000974
656.443300 0.001458
656.673800 0.001232
656.904300 0.002850
657.134800 -0.041399
657.365300 -0.067252
657.595900 -0.043920
657.826400 -0.039377
658.057000 -0.015719
658.287500 -0.018411
658.518100 -0.030355
658.748700 -0.008358
658.979300 0.003592
659.209900 -0.052547
659.440600 -0.138921
659.671200 -0.223304
659.901800 -0.279750
660.132500 -0.261849
660.363200 -0.190481
660.593800 -0.094360
660.824500 -0.087713
661.055200 -0.050289
661.285900 -0.026116
661.516600 -0.022236
661.747400 0.011266
661.978100 -0.047193
662.208800 -0.002158
662.439600 -0.008629
662.670400 0.025500
662.901100 0.052709
663.131900 -0.015507
663.362700 0.034851
663.593500 -0.013369
663.824300 0.031881
664.055200 -0.016039
664.286000 0.018843
664.516800 0.012373
664.747700 0.039824
664.978600 -0.010268
665.209400 0.013223
665.440300 0.016592
665.671200 0.008786
665.902100 0.028439
666.133000 -0.014797
666.364000 -0.019803
666.594900 0.010195
666.825900 0.002721
667.056800 0.016502
667.287800 -0.017829
667.518800 -0.013770
667.749700 -0.021237
667.980700 0.007202
668.211700 -0.047727
668.442800 0.015133
668.673800 0.024386
668.904800 0.010054
669.135900 0.006706
669.366900 0.014818
669.598000 -0.004512
669.829100 0.015608
670.060200 -0.057576
670.291300 0.024069
670.522400 -0.017559
670.753500 0.020212
670.984600 -0.016485
671.215700 0.039779
671.446900 0.092380
671.678100 0.042946
671.909200 0.032433
672.140400 0.038522
672.371600 0.018876
672.602800 0.021313
672.834000 0.013848
673.065200 -0.013677
673.296400 -0.010492
673.527700 0.000138
673.758900 -0.035554
673.990200 0.016611
674.221400 -0.031126
674.452700 -0.018321
674.684000 -0.013106
674.915300 0.001965
675.146600 0.033957
675.377900 -0.002864
675.609300 0.003948
675.840600 -0.011412
676.071900 -0.016653
676.303300 0.010437
676.534700 -0.031502
676.766100 0.014602
676.997400 0.003534
677.228800 0.027519
677.460200 0.027933
677.691700 0.021378
677.923100 0.035451
678.154500 -0.001547
678.386000 -0.012215
678.617400 0.002594
678.848900 0.006882
679.080400 0.016689
679.311900 0.028012
679.543400 0.019002
679.774900 0.014024
680.006400 0.021742
680.237900 0.004529
680.469400 0.018653
680.701000 -0.006313
680.932500 -0.005523
681.164100 0.019002
681.395700 0.033808
681.627300 0.011077
681.858900 -0.012449
682.090500 -0.033780
682.322100 -0.015985
682.553700 -0.018052
682.785400 -0.020309
683.017000 0.007508
683.248700 -0.003072
683.480300 0.027084
683.712000 -0.028655
683.943700 0.013430
684.175400 0.038499
684.407100 0.035492
684.638800 0.016210
684.870500 0.034694
685.102300 0.042092
685.334000 0.027091
685.565800 0.037346
685.797500 0.017640
686.029300 -0.018757
686.261100 0.011099
686.492900 -0.008825
686.724700 0.001261
686.956500 -0.018795
687.188300 0.023712
687.420200 -0.002418
687.652000 -0.006143
687.883800 -0.013524
688.115700 -0.024847
688.347600 -0.018087
688.579500 -0.001729
688.811400 -0.020366
689.043300 -0.016898
689.275200 0.006989
689.507100 0.018453
689.739000 -0.005298
689.971000 -0.033065
690.202900 0.001942
690.434900 -0.008149
690.666900 0.011614
690.898800 0.028551
691.130800 0.050448
691.362800 0.011272
691.594800 0.000633
691.826900 0.007138
692.058900 -0.002089
692.290900 -0.006446
692.523000 0.026956
692.755000 0.000631
692.987100 0.013291
693.219200 -0.004536
693.451300 0.009443
693.683400 -0.008163
693.915500 -0.023266
694.147600 -0.011563
694.379700 -0.003039
694.611900 -0.013904
694.844000 0.029807
695.076200 0.005562
695.308300 0.030995
695.540500 -0.003877
695.772700 -0.047068
696.004900 0.011214
696.237100 -0.024121
696.469300 0.027572
696.701600 0.045342
696.933800 0.059550
697.166000 0.008039
697.398300 0.031165
697.630600 0.000623
697.862800 0.025799
698.095100 0.051630
698.327400 -0.010935
698.559700 -0.003064
698.792000 -0.037214
699.024300 0.005159
699.256700 -0.020724
699.489000 -0.015096
699.721400 0.029703
699.953700 -0.017829
700.186100 0.008948
700.418500 -0.046844
700.650900 0.012543
700.883300 -0.014538
701.115700 -0.030031
701.348100 -0.061443
701.580600 0.019965
701.813000 -0.013716
702.045400 -0.013153
702.277900 0.017692
702.510400 0.005830
702.742900 -0.022624
702.975300 -0.002384
703.207800 0.014451
703.440300 0.051611
703.672900 0.031504
703.905400 -0.006495
704.137900 -0.001100
704.370500 0.013282
704.603000 -0.020304
704.835600 -0.002355
705.068200 -0.047849
705.300800 -0.041656
705.533400 0.011768
705.766000 0.009434
705.998600 0.005640
706.231200 0.035715
706.463800 0.068946
706.696500 0.036830
706.929100 0.040024
707.161800 0.004925
707.394500 0.005795
707.627200 0.001857
707.859900 0.020454
708.092600 0.025718
708.325300 0.015479
708.558000 -0.015230
708.790700 -0.002750
709.023500 -0.019777
709.256200 -0.037900
709.489000 -0.021862
709.721700 -0.029555
709.954500 0.016082
710.187300 -0.010329
710.420100 0.030193
710.652900 -0.024405
710.885700 -0.024964
711.118600 -0.020421
711.351400 -0.031465
711.584200 0.004957
711.817100 -0.007909
712.050000 -0.027260
712.282800 -0.030075
712.515700 -0.003777
712.748600 0.013823
712.981500 0.006436
713.214400 0.035531
713.447400 0.023265
713.680300 0.002900
713.913200 0.009221
714.146200 0.000632
714.379100 -0.006335
714.612100 -0.028202
714.845100 -0.010208
715.078100 0.019529
715.311100 -0.023164
715.544100 -0.008349
715.777100 -0.026833
716.010200 -0.017983
716.243200 -0.047921
716.476200 0.015676
716.709300 0.005959
716.942400 -0.019164
717.175400 -0.020057
717.408500 0.025895
717.641600 0.002794
717.874700 0.003332
718.107800 0.004196
718.341000 0.011362
718.574100 -0.000446
718.807200 0.006261
719.040400 0.036576
719.273600 0.033436
719.506700 0.012412
719.739900 0.009277
719.973100 -0.025223
720.206300 -0.024707
720.439500 -0.009916
720.672700 0.023717
720.906000 -0.003873
721.139200 0.001556
721.372500 0.017234
721.605700 0.000918
721.839000 0.005328
722.072300 0.023715
722.305500 -0.031483
722.538800 -0.005012
722.772100 -0.044687
723.005500 0.005370
723.238800 -0.017205
723.472100 0.013340
723.705500 -0.000277
723.938800 -0.020456
724.172200 -0.000269
724.405600 -0.024125
724.638900 0.025971
724.872300 0.010079
725.105700 0.008353
725.339100 0.031708
725.572600 0.002195
725.806000 0.013106
726.039400 0.008998
726.272900 0.014744
726.506300 0.010324
726.739800 0.014823
726.973300 -0.016960
727.206800 0.007334
727.440300 0.033315
727.673800 0.034494
727.907300 0.050861
728.140800 0.017594
728.374300 0.013878
728.607900 0.026177
728.841400 -0.011995
729.075000 0.008451
729.308600 0.007461
729.542100 0.039175
729.775700 0.015704
730.009300 -0.022731
730.242900 -0.000191
730.476600 0.023318
730.710200 0.026703
730.943800 0.053681
731.177500 0.005401
731.411100 -0.008356
731.644800 0.015946
731.878500 -0.002406
732.112200 -0.005704
732.345800 0.003229
732.579500 0.042044
732.813300 0.019920
733.047000 -0.003921
733.280700 0.042111
733.514500 -0.001770
733.748200 0.030100
733.982000 0.044281
734.215700 0.028023
734.449500 0.017353
734.683300 0.026758
734.917100 -0.007006
735.150900 -0.015912
735.384700 0.013661
735.618500 0.030611
735.852400 -0.007663
736.086200 0.022795
736.320100 -0.004948
736.553900 0.011939
736.787800 -0.008864
737.021700 0.018117
737.255600 0.022838
737.489500 -0.013639
737.723400 -0.050272
737.957300 -0.037117
738.191200 -0.029624
738.425200 -0.004307
738.659100 0.005444
738.893100 -0.007573
739.127100 0.025743
739.361000 0.011578
739.595000 -0.005308
739.829000 -0.012563
740.063000 -0.040513
740.297000 -0.022153
740.531000 -0.036871
740.765100 -0.008018
740.999100 0.008032
741.233200 -0.002853
741.467200 -0.003592
741.701300 0.002436
741.935400 0.009425
742.169500 -0.009754
742.403600 -0.023250
742.637700 0.005993
742.871800 -0.023488
743.105900 -0.019281
743.340000 -0.017243
743.574200 -0.005673
743.808300 -0.035186
744.042500 -0.026010
744.276700 -0.002599
744.510800 0.003933
744.745000 -0.024615
744.979200 0.008176
745.213400 -0.026191
745.447700 0.037187
745.681900 -0.036602
745.916100 0.011684
746.150400 0.039691
746.384600 0.014110
746.618900 -0.023773
746.853200 0.025707
747.087400 0.021171
747.321700 0.024750
747.556000 -0.020156
747.790300 -0.007129
748.024700 -0.050072
748.259000 -0.009214
748.493300 0.031112
748.727700 0.034378
748.962000 0.056883
749.196400 0.005357
749.430800 0.024860
749.665200 0.006760
749.899500 0.021788
750.133900 0.018473
750.368400 0.044235
750.602800 0.016101
750.837200 -0.010964
751.071700 -0.011528
751.306100 -0.008607
751.540600 0.008888
751.775000 0.045265
752.009500 -0.018775
752.244000 -0.008449
752.478500 -0.007018
752.713000 -0.004017
752.947500 -0.033421
753.182000 0.020899
753.416600 0.011465
753.651100 0.054180
753.885600 0.025510
754.120200 -0.023617
754.354800 -0.016782
754.589400 0.004636
754.823900 0.005756
755.058500 0.014595
755.293100 0.015547
755.527800 0.029240
755.762400 0.010270
755.997000 0.001836
756.231700 0.030714
756.466300 0.019067
756.701000 0.022362
756.935600 0.019113
757.170300 0.024499
757.405000 0.061634
757.639700 0.021146
757.874400 0.015151
758.109100 -0.003108
758.343800 0.000298
758.578600 0.005167
758.813300 0.015154
759.048100 0.001520
759.282800 0.016504
759.517600 0.025523
759.752400 0.013396
759.987200 0.016340
760.222000 0.010214
760.456800 0.014082
760.691600 0.016507
760.926400 0.002870
761.161300 0.000682
761.396100 -0.018881
761.631000 -0.010610
761.865800 0.006260
762.100700 -0.002876
762.335600 -0.012304
762.570500 -0.004639
762.805400 -0.026343
763.040300 0.001453
763.275200 -0.000688
763.510100 0.015187
763.745000 0.000918
763.980000 0.033734
764.214900 0.027693
764.449900 0.042834
764.684900 0.036020
764.919800 -0.010742
765.154800 -0.018331
765.389800 0.001714
765.624800 0.007285
765.859900 -0.022955
766.094900 -0.030863
766.329900 -0.021883
766.565000 -0.012428
766.800000 -0.039012
767.035100 -0.010328
767.270100 -0.016010
767.505200 0.014822
767.740300 0.030744
767.975400 0.020982
768.210500 0.025446
768.445600 0.017684
768.680800 0.038562
768.915900 0.042825
769.151000 0.006183
769.386200 -0.001844
769.621400 -0.003484
769.856500 0.021739
770.091700 -0.002301
770.326900 -0.003722
770.562100 0.009154
770.797300 0.010884
771.032500 0.003819
771.267700 -0.007315
771.503000 -0.021082
771.738200 -0.004706
771.973500 -0.032451
772.208700 0.009746
772.444000 0.006092
772.679300 -0.002915
772.914600 -0.006159
773.149900 -0.040056
773.385200 -0.006205
773.620500 -0.006791
773.855800 0.020008
774.091100 -0.032466
774.326500 -0.014185
774.561800 -0.020738
774.797200 0.019425
775.032600 0.030899
775.267900 -0.032504
775.503300 -0.025333
775.738700 -0.001547
775.974100 -0.002581
776.209500 -0.026641
776.445000 0.003824
776.680400 0.041923
776.915800 0.014787
777.151300 -0.003209
777.386800 -0.011592
777.622200 0.014070
777.857700 0.011860
778.093200 0.025833
778.328700 0.002963
778.564200 0.034112
778.799700 0.015822
779.035200 0.030583
779.270700 0.002844
779.506300 0.033564
779.741800 -0.019738
779.977400 -0.022871
780.213000 -0.032175
780.448500 -0.036620
780.684100 0.008871
780.919700 0.034879
781.155300 0.044672
781.390900 0.030380
781.626500 0.015736
781.862200 0.019696
782.097800 0.021546
782.333500 0.011348
782.569100 0.001760
782.804800 -0.023668
783.040500 -0.021735
783.276100 -0.022273
783.511800 0.002866
783.747500 0.009856
783.983200 -0.010529
784.219000 -0.019080
784.454700 0.003116
784.690400 -0.014779
784.926200 -0.011714
785.161900 0.008145
785.397700 0.003782
785.633500 -0.034697
785.869200 -0.018036
786.105000 0.034567
786.340800 -0.001533
786.576600 0.016100
786.812400 -0.014196
787.048300 0.017215
787.284100 0.056162
787.519900 -0.009818
787.755800 0.025680
787.991700 0.003046
788.227500 0.007981
788.463400 0.000610
788.699300 0.004744
788.935200 0.002228
789.171100 -0.014812
789.407000 -0.026998
789.642900 -0.010816
789.878900 0.001148
790.114800 -0.011465
790.350700 -0.004480
790.586700 0.014562
790.822700 0.002020
791.058600 -0.020870
791.294600 0.006029
791.530600 0.025416
791.766600 0.006419
792.002600 0.004586
792.238700 -0.011337
792.474700 0.011444
792.710700 0.028062
792.946800 -0.026145
793.182800 0.056768
793.418900 -0.012247
793.655000 0.015123
793.891000 0.061564
794.127100 0.083976
794.363200 0.069389
794.599300 0.001872
794.835500 0.012128
795.071600 0.045321
795.307700 0.017904
795.543900 0.006669
795.780000 -0.016903
796.016200 -0.014082
796.252300 -0.057436
796.488500 0.004537
796.724700 0.002476
796.960900 0.001815
797.197100 -0.009459
797.433300 -0.022722
797.669500 0.015456
797.905800 0.040031
798.142000 -0.019213
798.378300 0.000915
798.614500 -0.000882
798.850800 0.010582
799.087100 0.004414
799.323300 0.037193
799.559600 -0.029650
799.795900 0.003271
800.032200 0.002920
800.268600 -0.052530
800.504900 -0.026722
800.741200 0.018781
800.977600 -0.015294
801.213900 -0.008865
801.450300 -0.005737
801.686700 -0.015797
801.923000 -0.047866
802.159400 0.000792
802.395800 -0.037594
802.632200 0.003985
802.868600 -0.047823
803.105100 0.035606
803.341500 -0.029389
803.577900 0.029553
803.814400 0.005205
804.050800 -0.040477
804.287300 -0.019520
804.523800 -0.028727
804.760300 0.013588
804.996800 -0.023398
805.233300 -0.019897
805.469800 0.041353
805.706300 0.004153
805.942800 0.030426
806.179400 0.006063
806.415900 0.036215
806.652500 -0.009064
806.889000 0.002670
807.125600 0.003325
807.362200 -0.014068
807.598800 0.019319
807.835400 0.007600
808.072000 -0.026393
808.308600 0.005498
808.545200 0.010286
808.781800 -0.013533
809.018500 0.004979
809.255100 -0.004177
809.491800 -0.029103
809.728400 0.003845
809.965100 -0.008872
810.201800 0.035646
810.438500 -0.034500
810.675200 -0.001485
810.911900 -0.020799
811.148600 0.072596
811.385300 -0.004785
811.622100 -0.009666
811.858800 0.008080
812.095600 -0.010327
812.332300 0.021136
812.569100 -0.032960
812.805900 -0.037693
813.042700 -0.031942
813.279500 -0.001135
813.516300 -0.010379
813.753100 0.048765
813.989900 0.058132
814.226700 0.030949
814.463600 -0.011182
814.700400 -0.012265
814.937300 0.011224
815.174200 -0.031496
815.411000 -0.041881
815.647900 -0.041690
815.884800 -0.000191
816.121700 0.004521
816.358600 0.063780
816.595500 0.030683
816.832400 -0.016082
817.069400 0.031277
817.306300 -0.027175
817.543300 0.016304
817.780200 -0.053526
818.017200 0.005354
818.254200 0.017644
818.491200 -0.035577
818.728200 -0.003133
818.965200 0.009322
819.202200 -0.017673
819.439200 -0.043811
819.676200 -0.076768
819.913300 -0.050488
820.150300 -0.036834
820.387400 0.105603
820.624400 0.048904
820.861500 0.016766
821.098600 0.051817
821.335700 0.057869
821.572700 -0.028253
821.809900 0.004828
822.047000 0.005924
822.284100 -0.030448
822.521200 -0.018814
822.758400 0.008654
822.995500 -0.028739
823.232700 0.029675
823.469800 0.027806
823.707000 -0.021229
823.944200 -0.047935
824.181400 -0.003119
824.418600 -0.022630
824.655800 0.048655
824.893000 0.052331
825.130200 0.042061
825.367500 0.013256
825.604700 0.063121
825.841900 -0.032930
826.079200 0.004392
826.316500 -0.033967
826.553700 0.036770
826.791000 0.076026
827.028300 0.037791
827.265600 0.101426
827.502900 0.021714
827.740200 0.025373
827.977600 -0.037448
828.214900 -0.034400
828.452200 0.043535
828.689600 0.046470
828.927000 -0.017759
829.164300 -0.035947
829.401700 -0.037733
829.639100 -0.014642
829.876500 -0.031425
830.113900 -0.030006
830.351300 -0.002139
830.588700 -0.015706
830.826100 0.023987
831.063600 0.007298
831.301000 0.048655
831.538500 -0.000601
831.775900 -0.042525
832.013400 -0.011930
832.250900 0.114481
832.488400 0.022765
832.725900 0.044523
832.963400 0.047799
833.200900 0.016091
833.438400 0.040464
833.675900 0.084984
833.913500 0.037081
834.151000 0.068630
834.388600 0.131978
834.626100 -0.021231
834.863700 -0.021336
835.101300 0.009878
835.338900 0.021603
835.576500 0.001228
835.814100 -0.049376
836.051700 -0.001096
836.289300 0.037944
836.526900 0.027382
836.764600 -0.075557
837.002200 0.074203
837.239900 0.057740
837.477500 -0.030179
837.715200 -0.103797
837.952900 0.071503
838.190600 -0.000056
838.428300 -0.087453
838.666000 -0.003832
838.903700 0.012786
839.141400 -0.004997
839.379100 0.027681
839.616900 -0.004742
839.854600 0.069747
840.092400 -0.028286
840.330200 0.022329
840.567900 0.158050
840.805700 0.009554
841.043500 -0.034839
841.281300 0.155348
841.519100 -0.058600
841.756900 -0.012788
841.994700 -0.081982
842.232600 0.064743
842.470400 -0.008137
842.708200 -0.005975
842.946100 -0.016353
843.184000 -0.088982
843.421800 -0.094802
843.659700 0.025108
843.897600 -0.025711
844.135500 0.097595
844.373400 -0.123983
844.611300 0.142907
844.849200 -0.018493
845.087200 0.001574
845.325100 0.002311
845.563100 0.020805
845.801000 0.020851
846.039000 0.071314
846.277000 -0.066363
846.514900 -0.083285
846.752900 -0.184100
846.990900 -0.055529
847.228900 -0.012003
847.466900 0.077006
847.705000 -0.021550
847.943000 -0.016662
848.181000 -0.098552
848.419100 0.037817
848.657100 0.043021
848.895200 0.003827
849.133300 0.102359
849.371300 0.073604
849.609400 -0.027726
849.847500 0.058463
850.085600 -0.005436
850.323700 0.208421
850.561900 0.007180
850.800000 0.049062
851.038100 0.065534
851.276300 -0.180646
851.514400 -0.159261
851.752600 0.228218
851.990800 -0.051019
852.228900 -0.055616
852.467100 0.183353
852.705300 0.179187
852.943500 0.085030
853.181700 0.114773
853.420000 0.006004
853.658200 0.012424
853.896400 0.022686
854.134700 0.003404
854.372900 0.014921
854.611200 0.060354
854.849500 0.038508
855.087700 -0.015988
855.326000 0.068379
855.564300 -0.037374
855.802600 -0.024308
856.040900 0.016252
856.279200 0.059614
856.517600 0.005457
856.755900 -0.050338
856.994200 -0.022356
857.232600 0.003036
857.471000 -0.030853
857.709300 -0.009997
857.947700 -0.021869
858.186100 0.063540
858.424500 -0.005318
858.662900 -0.025575
858.901300 0.005327
859.139700 -0.027494
859.378100 -0.019257
859.616600 0.034916
859.855000 -0.017317
860.093500 -0.069454
860.331900 0.022095
860.570400 0.052214
860.808900 -0.018472
861.047300 -0.032241
861.285800 0.033674
861.524300 0.024478
861.762800 0.001225
862.001300 0.007351
862.239900 0.056086
862.478400 0.019349
862.716900 0.133338
862.955500 0.089132
863.194000 -0.014862
863.432600 0.031172
863.671200 0.068711
863.909800 -0.050559
864.148300 -0.063969
864.386900 -0.056990
864.625500 -0.057563
864.864200 0.044663
865.102800 -0.070826
865.341400 -0.058804
865.580000 0.099587
865.818700 -0.050847
866.057300 -0.029167
866.296000 0.041459
866.534700 -0.012829
866.773300 -0.022176
867.012000 0.105627
867.250700 -0.053688
867.489400 -0.034643
867.728100 -0.094661
867.966900 0.131954
868.205600 -0.028018
868.444300 0.061871
868.683100 0.015032
868.921800 0.047660
869.160600 -0.030665
869.399300 0.093678
869.638100 -0.025256
869.876900 0.072648
870.115700 0.035793
870.354500 0.058698
870.593300 -0.043956
870.832100 0.131837
871.070900 -0.113437
871.309700 0.069246
871.548600 0.096159
871.787400 0.015734
872.026300 -0.145645
872.265100 -0.007963
872.504000 -0.000891
872.742900 0.000945
872.981800 -0.102737
873.220700 0.176861
873.459600 0.145339
873.698500 -0.051706
873.937400 0.056905
874.176300 0.008286
874.415300 0.008118
874.654200 0.009532
874.893200 0.019020
875.132100 0.009062
875.371100 0.126689
875.610100 0.022766
875.849100 0.072403
876.088000 0.012860
876.327000 -0.085971
876.566100 -0.135019
876.805100 -0.000738
877.044100 0.027392
877.283100 -0.103358
877.522200 -0.059972
877.761200 0.026068
878.000300 0.009039
878.239300 0.035413
878.478400 -0.039302
878.717500 -0.026276
878.956600 -0.026631
879.195700 0.188042
879.434800 -0.050306
879.673900 0.073116
879.913000 0.001720
880.152100 0.020820
880.391300 0.029402
880.630400 -0.036806
880.869600 0.040940
881.108700 0.037804
881.347900 -0.022227
881.587100 -0.031969
881.826200 -0.058058
882.065400 0.104814
882.304600 -0.093475
882.543800 -0.001972
882.783100 0.139262
883.022300 -0.040989
883.261500 -0.017821
883.500700 -0.037925
883.740000 -0.041994
883.979200 0.116910
884.218500 -0.019879
884.457800 0.092281
884.697100 -0.074042
884.936300 0.046788
885.175600 0.042934
885.414900 0.018804
885.654200 0.025737
885.893600 -0.054719
886.132900 -0.002563
886.372200 0.076937
886.611600 -0.134656
886.850900 0.086221
887.090300 -0.025214
887.329600 0.017461
887.569000 -0.072380
887.808400 0.051518
888.047800 -0.133297
888.287200 -0.079726
888.526600 -0.088815
888.766000 -0.058848
889.005400 -0.065810
889.244800 0.139719
889.484300 -0.078684
889.723700 0.091641
889.963200 -0.035644
890.202600 0.045853
890.442100 -0.011645
890.681600 0.011856
890.921100 0.068977
891.160600 0.098113
891.400100 0.061697
891.639600 0.019565
891.879100 -0.029757
892.118600 0.080488
892.358100 -0.107259
892.597700 0.226299
892.837200 0.197044
893.076800 0.302713
893.316300 -0.015153
893.555900 0.106439
893.795500 0.050781
894.035100 -0.049063
894.274700 -0.015192
894.514300 -0.063508
894.753900 -0.018169
894.993500 0.067545
895.233100 -0.224067
895.472700 0.142519
895.712400 0.008915
895.952000 0.037480
896.191700 -0.070960
896.431400 0.131559
896.671000 0.127856
896.910700 -0.023594
897.150400 0.088543
897.390100 -0.028503
897.629800 0.085032
897.869500 0.124678
898.109200 -0.058791
898.348900 0.079636
898.588700 -0.011333
898.828400 0.065055
899.068200 -0.048561
899.307900 0.176091
899.547700 -0.036703
899.787500 0.031270
900.027200 -0.194270
900.267000 -0.004320
900.506800 0.233067
900.746600 -0.011616
900.986400 0.099034
901.226300 0.022910
901.466100 -0.059179
901.705900 0.121513
901.945800 -0.088042
902.185600 0.123568
902.425500 0.052098
902.665400 -0.016281
902.905200 -0.079659
903.145100 0.153015
903.385000 -0.038609
903.624900 0.129314
903.864800 0.085396
904.104700 0.028288
904.344600 0.114695
904.584600 -0.131693
904.824500 -0.070501
905.064400 0.006044
905.304400 0.015668
905.544400 -0.001690
905.784300 0.073488
906.024300 0.000079
906.264300 0.014903
906.504300 0.066631
906.744300 0.106964
906.984300 -0.069408
907.224300 0.028151
907.464300 0.157912
907.704300 -0.085915
907.944400 -0.041743
908.184400 -0.043680
908.424500 -0.034553
908.664500 -0.237765
908.904600 0.104421
909.144700 0.098126
909.384700 -0.074353
909.624800 -0.178181
909.864900 0.344329
910.105000 0.076497
910.345200 -0.193143
910.585300 -0.061231
910.825400 0.058340
911.065500 0.094031
911.305700 0.012240
911.545800 0.019642
911.786000 0.001190
912.026200 -0.098705
912.266300 0.211683
912.506500 -0.083277
912.746700 0.033439
912.986900 -0.097962
913.227100 0.066905
913.467300 0.028498
913.707500 0.302575
913.947800 0.251651
914.188000 0.151558
914.428300 0.339613
914.668500 0.201563
914.908800 0.191982
915.149000 0.158938
915.389300 0.026808
915.629600 0.291895
915.869900 0.098449
916.110200 -0.097025
916.350500 -0.041680
916.590800 -0.069590
916.831100 -0.005325
917.071400 0.166822
917.311800 -0.109243
917.552100 0.052317
917.792500 -0.068295
918.032800 0.042395
918.273200 0.016537
918.513600 0.099322
918.753900 -0.086075
918.994300 -0.038795
919.234700 0.120523
919.475100 0.102443
919.715500 -0.000895
919.956000 0.161052
920.196400 -0.201923
920.436800 0.263795
920.677300 -0.061172
920.917700 0.045938
921.158200 0.036051
921.398600 -0.020246
921.639100 0.113635
921.879600 -0.239784
922.120100 -0.204067
922.360600 0.213512
922.601100 -0.029533
922.841600 0.207474
923.082100 -0.058706
923.322600 0.227235
923.563100 -0.041646
923.803700 0.178510
924.044200 0.010639
924.284800 -0.003311
924.525400 0.033907
924.765900 -0.036081
925.006500 -0.073807
925.247100 0.031826
925.487700 -0.166289
925.728300 0.156601
925.968900 -0.058823
926.209500 0.106542
926.450100 -0.248656
926.690800 0.197103
926.931400 -0.151617
927.172000 0.039596
927.412700 0.153784
927.653300 0.195980
927.894000 0.133681
928.134700 0.129455
928.375400 0.098454
928.616100 0.178660
928.856800 0.068050
929.097500 -0.096250
929.338200 0.000734
929.578900 -0.036314
929.819600 -0.037315
930.060400 0.124872
930.301100 0.318911
930.541900 0.097347
930.782600 -0.098817
931.023400 0.020086
931.264200 0.118288
931.504900 0.315081
931.745700 -0.022834
931.986500 -0.142639
932.227300 0.021910
932.468100 0.478300
932.708900 -0.181261
932.949800 0.451088
933.190600 0.081997
933.431400 -0.008106
933.672300 -0.168810
933.913100 0.234869
934.154000 0.023850
934.394900 -0.027963
934.635800 -0.079898
934.876600 0.276261
935.117500 -0.086247
935.358400 0.138252
935.599300 0.039627
935.840300 0.176500
936.081200 -0.044131
936.322100 0.294956
936.563000 0.236644
936.804000 0.258206
937.044900 -0.286452
937.285900 0.202644
937.526900 -0.130977
937.767800 0.532894
938.008800 0.247900
938.249800 0.059591
938.490800 0.205403
938.731800 0.022664
938.972800 0.333796
939.213800 -0.011335
939.454900 0.247439
939.695900 -0.204289
939.936900 0.285725
940.178000 -0.093175
940.419000 -0.196295
940.660100 0.553794
940.901200 0.182987
941.142200 -0.243643
941.383300 0.648452
941.624400 -0.336826
941.865500 0.278635
942.106600 0.070417
942.347700 0.951975
942.588900 -0.035843
942.830000 0.440264
943.071100 -0.307026
943.312300 0.601718
943.553400 -0.176586
943.794600 0.251860
944.035700 -0.027541
944.276900 0.156989
944.518100 -0.176762
944.759300 0.464270
945.000500 -0.389851
945.241700 0.048569
945.482900 0.428914
945.724100 0.054601
945.965300 0.067265
946.206600 0.448557
946.447800 -0.047256
946.689100 0.801384
946.930300 -0.456550
947.171600 3.215373
947.412800 0.202484
947.654100 -0.232163
947.895400 -0.149231
948.136700 0.503867
948.378000 0.400120
948.619300 1.614466
948.860600 3.265290
949.101900 0.205532
949.343300 0.122563
949.584600 -0.146546
949.825900 -0.306286
950.067300 0.807811
950.308600 -0.317471
950.550000 0.380358
950.791400 -0.478249
951.032700 2.872739
951.274100 -0.187260
951.515500 0.176355
951.756900 -0.184191
951.998300 0.687512
952.239800 -0.061870
952.481200 0.180090
952.722600 -0.168683
952.964000 0.288767
953.205500 0.219745
953.446900 0.273754
953.688400 0.189005
953.929900 0.717637
954.171300 -1.674597
954.412800 0.204370
954.654300 -0.195426
954.895800 -0.192908
955.137300 -0.393398
955.378800 0.742718
955.620300 1.253074
955.861800 0.453434
956.103400 0.536862
956.344900 3.192289
956.586500 -0.295572
956.828000 -0.008573
957.069600 -0.144317
957.311100 -0.465503
957.552700 0.178487
957.794300 -0.222957
958.035900 0.152577
958.277500 -0.230944
958.519100 0.653050
958.760700 0.170782
959.002300 -0.632124
959.243900 0.035228
959.485600 -0.008816
959.727200 0.376164
959.968800 1.275102
960.210500 0.632567
960.452200 0.099582
960.693800 2.919078
960.935500 -3.249198
961.177200 -0.021696
961.418900 -0.765089
961.660600 0.083534
961.902300 0.057039
962.144000 2.673021
962.385700 -0.156722
962.627400 0.049698
962.869200 -0.197123
963.110900 0.562982
963.352700 0.134242
963.594400 0.288003
963.836200 0.211397
964.077900 -0.049018
964.319700 -0.059928
964.561500 3.252853
964.803300 0.123889
965.045100 0.617581
965.286900 -0.090264
965.528700 0.048061
965.770500 -0.246907
966.012300 0.354613
966.254200 -0.332814
966.496000 -0.124467
966.737900 0.157220
966.979700 0.485507
967.221600 -0.290720
967.463400 0.220541
967.705300 0.247032
967.947200 0.626742
968.189100 2.510545
968.431000 0.040925
968.672900 -0.230536
968.914800 0.148240
969.156700 0.338535
969.398700 -0.153079
969.640600 -0.624306
969.882500 3.097604
970.124500 -0.684167
970.366400 0.128528
970.608400 -0.241010
970.850400 -0.159701
971.092300 0.008466
971.334300 0.120521
971.576300 -0.775224
971.818300 0.176736
972.060300 0.013352
972.302300 0.393126
972.544300 -0.472146
972.786400 3.239550
973.028400 0.376237
973.270400 0.049369
973.512500 0.265522
973.754500 0.073436
973.996600 -0.169298
974.238700 1.585461
974.480700 -0.310357
974.722800 1.358521
974.964900 0.086684
975.207000 3.215373
975.449100 -0.719210
975.691200 1.017501
975.933300 -0.263904
976.175500 -2.369216
976.417600 0.145896
976.659700 0.358510
976.901900 3.021603
977.144000 0.610504
977.386200 -0.613241
977.628300 3.352761
977.870500 -0.024806
978.112700 2.776701
978.354900 -0.105981
978.597100 -0.155407
978.839300 0.837610
979.081500 0.509973
979.323700 -3.015360
979.565900 2.663701
979.808200 0.421434
980.050400 3.226342
980.292600 -0.032793
980.534900 0.455330
980.777100 -0.406577
981.019400 -0.049957
981.261700 0.284670
981.504000 0.491556
981.746200 1.845098
981.988500 3.013259
982.230800 -0.510679
982.473100 0.213931
982.715500 3.218010
982.957800 2.799341
983.200100 0.341979
983.442400 0.137904
983.684800 -0.358116
983.927100 0.242061
984.169500 0.168523
984.411800 -0.045866
984.654200 0.287666
984.896600 3.082785
985.139000 -1.842903
985.381400 0.945868
985.623800 0.635947
985.866200 0.205625
986.108600 -2.857332
986.351000 0.008918
986.593400 -0.463778
986.835800 0.369648
987.078300 -0.359248
987.320700 0.109928
987.563200 0.467708
987.805600 -0.533440
988.048100 0.044635
988.290600 2.760422
988.533100 -3.407561
988.775600 -0.115409
989.018000 0.374126
989.260500 3.086360
989.503100 -2.502427
989.745600 2.123852
989.988100 -2.176091
990.230600 3.097604
990.473200 0.652206
990.715700 3.257679
990.958200 -0.908260
991.200800 -0.160181
991.443400 -2.502427
991.685900 0.897204
991.928500 -2.369216
992.171100 -0.170017
992.413700 -0.012180
992.656300 3.161667
992.898900 -0.303974
993.141500 0.037064
993.384100 0.297327
993.626700 0.134730
993.869400 2.760422
994.112000 2.806180
994.354700 0.283289
994.597300 -0.094309
994.840000 -2.724276
995.082600 -0.593345
995.325300 -0.203244
995.568000 2.884795
995.810700 -0.946247
996.053400 0.108891
996.296100 0.797985
996.538800 0.173151
996.781500 1.141757
997.024200 2.049218
997.267000 0.350782
997.509700 3.186674
997.752400 0.044362
997.995200 0.234249
998.237900 -0.039584
998.480700 2.890421
998.723500 -2.724276
998.966200 2.956168
999.209000 -2.232996
999.451800 0.246495
999.694600 3.025715
999.937400 -1.244705
1000.180200 0.680288
1000.423000 -0.132100
1000.665900 -0.008505
1000.908700 0.163203
1001.151500 -0.368325
1001.394400 0.096715
1001.637200 -0.066117
1001.880100 -2.010017
1002.123000 2.840106
1002.365800 0.193343
1002.608700 -0.383217
1002.851600 -0.045757
1003.094500 0.583933
1003.337400 -0.585290
1003.580300 0.000000
1003.823200 -0.212393
1004.066100 0.769869
1004.309100 1.075879
1004.552000 0.070581
1004.794900 -0.034382
1005.037900 3.129368
1005.280800 2.806180
1005.523800 1.007463
1005.766700 -0.059952
1006.009700 3.047275
1006.252700 0.000000
1006.495700 0.705703
1006.738700 -1.643453
1006.981700 -0.063943
1007.224700 2.653213
1007.467700 2.008600
1007.710700 0.204120
1007.953800 3.146128
1008.196800 0.088036
1008.439800 3.195346
1008.682900 -0.276985
1008.925900 3.097604
1009.169000 0.026896
1009.412100 0.000000
1009.655100 -0.748796
1009.898200 0.120114
1010.141300 0.403586
1010.384400 0.729536
1010.627500 -0.031835
1010.870600 0.115639
1011.113700 0.036754
1011.356800 -0.049617
1011.600000 -0.221849
1011.843100 2.872156
1012.086300 -2.916454
1012.329400 -0.133981
1012.572600 -2.328380
1012.815700 2.783904
1013.058900 -2.283301
1013.302100 0.562982
1013.545200 2.960946
1013.788400 0.277638
1014.031600 0.000000
1014.274800 1.140683
1014.518000 1.800239
1014.761300 3.177536
1015.004500 -3.065580
1015.247700 1.297064
1015.490900 -2.905256
1015.734200 1.596347
1015.977400 2.450249
1016.220700 -2.107210
1016.464000 0.022501
1016.707200 2.190332
1016.950500 -0.515364
1017.193800 0.183673
1017.437100 -0.268296
1017.680400 1.623699
1017.923700 2.975891
1018.167000 3.231724
1018.410300 2.643453
1018.653600 2.913814
1018.896900 -0.189785
1019.140300 -0.127262
1019.383600 0.429762
1019.627000 0.148078
1019.870300 2.465383
1020.113700 3.183555
1020.357100 -0.505799
1020.600400 2.853698
1020.843800 3.090258
1021.087200 0.514075
1021.330600 -3.117603
1021.574000 1.709049
1021.817400 0.000000
1022.060800 0.000000
1022.304200 0.000000
1022.547700 2.902003
1022.791100 2.432969
1023.034500 2.812913
