# Wavelength	Absorbance
197.780200 2.878522
197.984200 2.907949
198.188200 3.093772
198.392200 2.682145
198.596300 0.233939
198.800300 2.318063
199.004400 0.004741
199.208500 -0.079673
199.412600 -0.466089
199.616800 2.768638
199.820900 -0.178070
200.025100 -0.467034
200.229200 2.463893
200.433400 3.008600
200.637600 -0.054266
200.841800 2.902003
201.046100 -0.412180
201.250300 0.925218
201.454600 0.307078
201.658900 0.237572
201.863100 2.994757
202.067400 -0.024195
202.271800 0.158265
202.476100 0.296643
202.680500 2.827369
202.884800 -0.297380
203.089200 0.207259
203.293600 2.745075
203.498000 2.913284
203.702400 2.336460
203.906900 -0.199321
204.111300 -2.813581
204.315800 0.026786
204.520300 0.419505
204.724800 -0.527900
204.929300 -1.024581
205.133800 3.093772
205.338400 0.811601
205.543000 -0.263135
205.747500 0.773660
205.952100 0.191808
206.156700 0.099121
206.361400 0.000000
206.566000 2.187521
206.770600 0.025188
206.975300 -0.407102
207.180000 0.845098
207.384700 -0.265987
207.589400 -2.318063
207.794100 2.480007
207.998900 -0.464502
208.203600 0.249742
208.408400 0.420583
208.613200 0.220318
208.818000 -0.223787
209.022800 0.823909
209.227600 0.460366
209.432500 -0.096373
209.637300 -0.495157
209.842200 2.294466
210.047100 -0.422503
210.252000 2.053078
210.456900 3.086360
210.661800 0.411926
210.866800 0.421781
211.071800 0.834974
211.276700 0.442566
211.481700 -0.506393
211.686700 -0.645381
211.891800 -0.070221
212.096800 0.536919
212.301800 -0.156854
212.506900 0.318803
212.712000 0.605836
212.917100 1.635277
213.122200 1.088136
213.327300 -0.052109
213.532500 -2.523746
213.737600 0.321726
213.942800 1.447158
214.148000 -0.641558
214.353200 -2.853698
214.558400 -0.224531
214.763600 3.265290
214.968900 2.896526
215.174100 0.201940
215.379400 -3.149527
215.584700 2.846955
215.790000 3.021603
215.995300 2.820201
216.200700 0.340797
216.406000 0.542167
216.611400 0.227875
216.816800 0.150737
217.022200 -0.080392
217.227600 3.086360
217.433000 -0.429583
217.638400 3.047275
217.843900 -0.370810
218.049400 -3.231979
218.254800 0.751334
218.460300 -0.288284
218.665900 0.107493
218.871400 1.076155
219.076900 0.054832
219.282500 2.960946
219.488100 0.345707
219.693600 2.783904
219.899200 0.237041
220.104900 3.055378
220.310500 2.158362
220.516100 -3.013259
220.721800 -0.103735
220.927500 -0.286027
221.133200 0.302120
221.338900 0.504063
221.544600 -0.224558
221.750300 1.275070
221.956100 -0.164102
222.161800 2.338456
222.367600 0.338096
222.573400 2.643453
222.779200 -2.995196
222.985000 -2.701568
223.190900 -0.203703
223.396700 -0.344965
223.602600 -0.748296
223.808500 2.736397
224.014400 -0.372902
224.220300 -0.020661
224.426200 -0.293927
224.632200 -0.086040
224.838100 2.890421
225.044100 2.653213
225.250100 0.332744
225.456100 2.653213
225.662100 2.632457
225.868100 2.127105
226.074200 2.632457
226.280200 0.000000
226.486300 -0.157366
226.692400 -2.008600
226.898500 3.101403
227.104600 -0.681425
227.310700 0.448233
227.516900 0.064407
227.723000 0.181420
227.929200 0.819884
228.135400 1.166331
228.341600 -0.041487
228.547800 -0.007384
228.754100 -0.059817
228.960300 -0.633009
229.166600 -3.263162
229.372900 -0.432892
229.579100 2.683047
229.785500 0.574207
229.991800 -0.933053
230.198100 -0.293746
230.404500 -1.198478
230.610800 3.003891
230.817200 -2.359835
231.023600 0.425038
231.230000 -0.157686
231.436400 0.196120
231.642900 -0.456140
231.849300 -0.323920
232.055800 -0.957542
232.262300 0.439390
232.468800 -1.149524
232.675300 -0.034829
232.881800 2.599883
233.088400 2.745075
233.294900 2.550228
233.501500 -0.177178
233.708100 -3.047275
233.914700 -0.515637
234.121300 0.000000
234.327900 -0.148095
234.534600 2.682145
234.741300 0.361208
234.947900 -0.117302
235.154600 3.406199
235.361300 3.122544
235.568000 -0.351080
235.774800 -0.350501
235.981500 -0.509221
236.188300 -2.397940
236.395100 2.999565
236.601800 -2.432969
236.808700 0.208130
237.015500 2.961421
237.222300 1.075547
237.429200 3.265290
237.636000 -0.167082
237.842900 1.851258
238.049800 0.064856
238.256700 -0.735066
238.463600 3.063333
238.670600 0.812449
238.877500 0.205798
239.084500 0.000000
239.291500 0.676114
239.498500 2.245513
239.705500 -0.499562
239.912500 -0.837949
240.119500 1.690196
240.326600 -0.511236
240.533700 -2.269513
240.740700 0.843025
240.947800 -0.111064
241.154900 1.803912
241.362100 0.890743
241.569200 -0.086874
241.776400 0.023239
241.983500 1.528631
242.190700 0.098261
242.397900 -2.913814
242.605100 -0.198577
242.812400 -0.265987
243.019600 0.220277
243.226900 2.710117
243.434100 -0.072591
243.641400 -0.294203
243.848700 0.017641
244.056000 0.000000
244.263400 2.653213
244.470700 3.082785
244.678100 3.082426
244.885400 0.192652
245.092800 -0.433465
245.300200 2.357935
245.507600 0.334811
245.715100 0.539084
245.922500 3.026125
246.130000 -1.870954
246.337500 3.183555
246.544900 -0.099345
246.752400 3.362859
246.960000 0.445913
247.167500 0.249231
247.375000 0.000000
247.582600 0.627775
247.790200 1.845098
247.997800 0.289319
248.205400 0.449344
248.413000 -0.083430
248.620600 -0.228627
248.828300 1.000700
249.035900 3.030600
249.243600 1.502707
249.451300 0.922560
249.659000 0.642339
249.866700 -0.018754
250.074500 3.226342
250.282200 3.189490
250.490000 -0.127924
250.697800 2.846955
250.905600 -0.675936
251.113400 2.929930
251.321200 -0.016420
251.529000 -1.234190
251.736900 0.076133
251.944700 1.028311
252.152600 3.289589
252.360500 2.710117
252.568400 2.662758
252.776300 2.397940
252.984300 2.902003
253.192200 1.394362
253.400200 0.616940
253.608200 -0.213698
253.816200 0.173830
254.024200 2.872739
254.232200 -0.848189
254.440200 -2.523746
254.648300 2.769377
254.856400 0.432055
255.064400 0.176091
255.272500 3.097604
255.480600 -0.105222
255.688800 0.000000
255.896900 0.455007
256.105100 3.284882
256.313200 2.752816
256.521400 2.827369
256.729600 0.123169
256.937800 -0.009265
257.146000 0.436620
257.354300 -2.269513
257.562500 0.208924
257.770800 -2.935507
257.979100 0.354613
258.187400 -0.309230
258.395700 3.082785
258.604000 3.034628
258.812400 2.919078
259.020700 0.593155
259.229100 0.518584
259.437500 0.480347
259.645900 0.534681
259.854300 -0.067439
260.062700 -0.243735
260.271100 2.621176
260.479600 3.097604
260.688100 -0.403849
260.896500 0.031700
261.105000 2.089905
261.313500 -0.594461
261.522100 0.343362
261.730600 0.262914
261.939200 2.701568
262.147700 0.524512
262.356300 2.745075
262.564900 -0.782756
262.773500 0.066678
262.982200 3.198382
263.190800 -2.550228
263.399500 3.206826
263.608100 0.439134
263.816800 3.034628
264.025500 2.396199
264.234200 -0.611015
264.442900 2.053078
264.651700 0.433903
264.860400 -0.121859
265.069200 -0.057413
265.278000 2.990339
265.486800 0.239495
265.695600 -0.073497
265.904400 2.950851
266.113300 0.104339
266.322100 0.032734
266.531000 -0.848549
266.739900 -0.280722
266.948800 3.125806
267.157700 2.884795
267.366600 3.055378
267.575500 -0.125455
267.784500 2.550228
267.993500 0.529374
268.202400 0.348598
268.411400 -0.079801
268.620500 2.761176
268.829500 -0.180194
269.038500 -0.539849
269.247600 0.920457
269.456600 2.008600
269.665700 2.965672
269.874800 1.129260
270.083900 0.139662
270.293100 0.000000
270.502200 0.030307
270.711400 -0.988506
270.920500 2.833784
271.129700 -0.036589
271.338900 0.076593
271.548100 2.691965
271.757300 0.386742
271.966600 -0.225189
272.175800 0.541213
272.385100 1.354429
272.594400 -0.115904
272.803700 3.021603
273.013000 2.799341
273.222300 -0.018502
273.431600 -0.050393
273.641000 3.209783
273.850400 2.701568
274.059700 0.787598
274.269100 0.053572
274.478500 0.552911
274.688000 -0.032083
274.897400 1.088136
275.106900 -1.488117
275.316300 3.055378
275.525800 0.403370
275.735300 0.000000
275.944800 -0.098037
276.154300 0.197375
276.363900 3.012837
276.573400 2.840106
276.783000 -0.164018
276.992600 2.846955
277.202200 3.047275
277.411800 0.037483
277.621400 2.727541
277.831000 3.118595
278.040700 -0.015310
278.250300 2.820201
278.460000 -0.068814
278.669700 2.980458
278.879400 -0.458010
279.089100 2.691965
279.298900 0.089196
279.508600 0.867353
279.718400 0.201256
279.928100 0.000000
280.137900 3.215373
280.347700 2.632457
280.557600 0.952346
280.767400 3.039017
280.977200 -0.132165
281.187100 -2.465383
281.397000 0.262536
281.606900 -2.465383
281.816800 0.311555
282.026700 0.140451
282.236600 2.935003
282.446600 0.834374
282.656500 -3.417306
282.866500 0.169477
283.076500 2.338456
283.286500 3.115278
283.496500 0.000000
283.706500 0.689927
283.916600 -0.444194
284.126600 0.845098
284.336700 -0.214557
284.546800 -0.506411
284.756900 0.592746
284.967000 -0.278115
285.177100 0.420755
285.387300 0.000000
285.597400 -0.193018
285.807600 -0.808402
286.017800 0.828863
286.228000 0.000000
286.438200 1.580369
286.648400 0.850611
286.858700 0.027746
287.068900 0.007606
287.279200 0.224741
287.489500 -0.560918
287.699800 0.457397
287.910100 2.621176
288.120400 3.047275
288.330800 -0.177832
288.541100 1.574803
288.751500 2.217484
288.961900 -0.190740
289.172300 0.000000
289.382700 0.044217
289.593100 2.913284
289.803500 0.000000
290.014000 1.071973
290.224500 -0.208925
290.434900 -3.314920
290.645400 0.424068
290.855900 2.653213
291.066500 -0.040828
291.277000 0.248749
291.487500 0.499125
291.698100 0.303255
291.908700 -1.006525
292.119300 0.218451
292.329900 0.012369
292.540500 -0.085227
292.751100 0.089881
292.961800 -3.168497
293.172400 3.171434
293.383100 -2.985875
293.593800 -0.127787
293.804500 -0.028202
294.015200 2.980458
294.226000 -2.902547
294.436700 0.640978
294.647500 2.866287
294.858200 0.108675
295.069000 3.055378
295.279800 -0.016420
295.490600 0.000000
295.701500 0.841701
295.912300 0.419084
296.123200 0.625514
296.334000 -0.121402
296.544900 0.303550
296.755800 3.220892
296.966700 -0.103735
297.177700 2.945961
297.388600 2.935003
297.599500 0.361028
297.810500 0.104383
298.021500 3.149219
298.232500 3.155640
298.443500 -0.527288
298.654500 0.363956
298.865600 3.125806
299.076600 0.613614
299.287700 0.000000
299.498800 0.255163
299.709900 2.902003
299.921000 -0.071479
300.132100 0.172333
300.343200 0.120919
300.554400 2.769377
300.765500 1.075547
300.976700 -2.736397
301.187900 3.104487
301.399100 -0.265600
301.610300 0.554180
301.821500 3.364739
302.032800 0.834974
302.244100 -0.198187
302.455300 3.097604
302.666600 -0.098932
302.877900 3.226342
303.089200 -0.137609
303.300600 0.714239
303.511900 0.079832
303.723300 2.924279
303.934600 0.006274
304.146000 0.845098
304.357400 -0.166914
304.568800 -0.006743
304.780300 0.617101
304.991700 -0.286897
305.203100 0.113479
305.414600 3.198382
305.626100 -0.630330
305.837600 3.201124
306.049100 -0.008643
306.260600 3.051153
306.472200 2.245513
306.683700 -0.176583
306.895300 2.575188
307.106900 3.231724
307.318400 3.034628
307.530100 -0.092914
307.741700 0.408240
307.953300 0.202547
308.165000 0.000000
308.376600 0.690102
308.588300 1.233693
308.800000 0.120413
309.011700 3.215109
309.223400 0.247285
309.435100 -0.692766
309.646900 2.840106
309.858600 3.054996
310.070400 0.238065
310.282200 1.447158
310.494000 0.711942
310.705800 0.770263
310.917600 0.383574
311.129500 0.442166
311.341300 0.936610
311.553200 0.684868
311.765100 -0.128861
311.977000 3.142702
312.188900 3.122544
312.400800 3.030600
312.612700 -0.155660
312.824700 0.451301
313.036600 0.022562
313.248600 3.332034
313.460600 -0.022450
313.672600 0.270760
313.884600 3.086360
314.096700 0.076137
314.308700 0.691344
314.520800 3.104828
314.732800 0.372177
314.944900 3.146128
315.157000 0.056863
315.369200 -0.204792
315.581300 3.082785
315.793400 2.653213
316.005600 0.385609
316.217700 3.168203
316.429900 0.974946
316.642100 3.168203
316.854300 0.294431
317.066600 0.549631
317.278800 0.441248
317.491100 0.472957
317.703300 1.177897
317.915600 2.041173
318.127900 0.459884
318.340200 0.475390
318.552500 -0.022566
318.764900 3.139249
318.977200 3.437592
319.189600 3.030195
319.401900 0.206170
319.614300 3.245019
319.826700 0.301309
320.039200 3.358886
320.251600 0.337270
320.464000 0.786031
320.676500 0.601589
320.889000 -0.500759
321.101400 0.020713
321.313900 3.310268
321.526500 0.833753
321.739000 3.376577
321.951500 0.323376
322.164100 0.772744
322.376600 0.484556
322.589200 3.362859
322.801800 0.514187
323.014400 0.482450
323.227000 0.398708
323.439700 0.415418
323.652300 1.562807
323.865000 1.783684
324.077700 0.914656
324.290400 0.407722
324.503100 0.157426
324.715800 0.558421
324.928500 0.269754
325.141200 3.384174
325.354000 0.743032
325.566800 0.991935
325.779600 1.442084
325.992400 3.314710
326.205200 0.380311
326.418000 1.883297
326.630800 0.406853
326.843700 0.756704
327.056600 0.955253
327.269400 3.416973
327.482300 0.586029
327.695200 2.130691
327.908200 0.723778
328.121100 1.236446
328.334000 0.608165
328.547000 0.660797
328.760000 1.494100
328.973000 0.979100
329.186000 0.650497
329.399000 0.646575
329.612000 0.511278
329.825100 0.405972
330.038100 1.010787
330.251200 1.022643
330.464300 1.162753
330.677400 0.596466
330.890500 0.603248
331.103600 1.061086
331.316700 1.042087
331.529900 2.067233
331.743100 1.805727
331.956200 1.883188
332.169400 3.577836
332.382600 3.520876
332.595900 0.736278
332.809100 3.604766
333.022300 0.374453
333.235600 3.633468
333.448900 0.814501
333.662200 1.519476
333.875500 0.838961
334.088800 0.240412
334.302100 3.740521
334.515400 1.214120
334.728800 0.354293
334.942200 1.076728
335.155500 3.580241
335.368900 0.709589
335.582300 0.353301
335.795800 3.676968
336.009200 1.310854
336.222700 0.799950
336.436100 0.333265
336.649600 1.362980
336.863100 0.331072
337.076600 0.851528
337.290100 1.097935
337.503600 0.919281
337.717200 0.712015
337.930700 1.198970
338.144300 0.672472
338.357900 0.519886
338.571500 3.715669
338.785100 3.703205
338.998700 0.617187
339.212400 1.349929
339.426000 1.161916
339.639700 0.984219
339.853300 0.887072
340.067000 0.677679
340.280700 0.622579
340.494500 0.899094
340.708200 0.552697
340.921900 3.796644
341.135700 3.715669
341.349500 2.475994
341.563300 0.805936
341.777100 3.818094
341.990900 1.148119
342.204700 1.350659
342.418500 0.923271
342.632400 1.208246
342.846300 3.839164
343.060100 1.784538
343.274000 0.811778
343.487900 1.553685
343.701900 1.058788
343.915800 0.650007
344.129700 1.604098
344.343700 3.778006
344.557700 0.856229
344.771700 3.809694
344.985700 0.704451
345.199700 0.733081
345.413700 1.156097
345.627700 1.046935
345.841800 0.806812
346.055900 3.854124
346.269900 1.550581
346.484000 1.044917
346.698100 1.012105
346.912300 1.354796
347.126400 1.169615
347.340600 3.899164
347.554700 3.883264
347.768900 1.116944
347.983100 3.942058
348.197300 3.889246
348.411500 1.611358
348.625700 1.858160
348.840000 1.057882
349.054200 1.350897
349.268500 1.251321
349.482800 1.135194
349.697100 1.603571
349.911400 3.877832
350.125700 3.910571
350.340000 0.907269
350.554400 0.779045
350.768700 0.804241
350.983100 1.015274
351.197500 0.986699
351.411900 0.834910
351.626300 3.954918
351.840700 1.096745
352.055200 1.309752
352.269600 0.614489
352.484100 1.733368
352.698600 1.307025
352.913100 1.373110
353.127600 0.980089
353.342100 0.972375
353.556600 1.103733
353.771200 4.007534
353.985800 1.224312
354.200300 3.930898
354.414900 0.738304
354.629500 1.898542
354.844100 0.762294
355.058800 1.963278
355.273400 0.884653
355.488100 1.269807
355.702700 1.206830
355.917400 1.669407
356.132100 4.015527
356.346800 0.951400
356.561500 1.429177
356.776300 1.060514
356.991000 4.003891
357.205800 1.146531
357.420600 0.825936
357.635300 1.823682
357.850100 4.018617
358.065000 3.991935
358.279800 1.337096
358.494600 3.959995
358.709500 4.012879
358.924300 1.191182
359.139200 1.769703
359.354100 0.838675
359.569000 0.734533
359.783900 0.885861
359.998900 1.221067
360.213800 4.019947
360.428800 0.916674
360.643800 0.795541
360.858700 3.960946
361.073700 1.212679
361.288800 1.028884
361.503800 1.628512
361.718800 1.009321
361.933900 1.272927
362.148900 0.930151
362.364000 2.739440
362.579100 0.999137
362.794200 0.923805
363.009300 1.408549
363.224500 1.367505
363.439600 1.500534
363.654800 4.034989
363.869900 4.028164
364.085100 1.117400
364.300300 0.963407
364.515500 1.195403
364.730800 4.062845
364.946000 4.055608
365.161200 1.207592
365.376500 4.086360
365.591800 0.850413
365.807100 4.020403
366.022400 4.056447
366.237700 2.169537
366.453000 1.304981
366.668400 1.067359
366.883700 0.771377
367.099100 4.077622
367.314500 1.333152
367.529900 4.111531
367.745300 1.075660
367.960700 1.425674
368.176100 4.093071
368.391600 1.223328
368.607000 4.134305
368.822500 4.111901
369.038000 1.020483
369.253500 4.100405
369.469000 0.967778
369.684500 1.417643
369.900100 1.174896
370.115600 1.054667
370.331200 4.097847
370.546800 1.090750
370.762400 0.834381
370.978000 1.838477
371.193600 4.104351
371.409200 1.441751
371.624900 1.073993
371.840500 4.181129
372.056200 1.183600
372.271900 1.260395
372.487600 1.395566
372.703300 4.129915
372.919000 4.120278
373.134800 1.324090
373.350500 1.450588
373.566300 1.836574
373.782000 4.160709
373.997800 1.138898
374.213600 1.484890
374.429400 4.167613
374.645300 1.118191
374.861100 1.288796
375.077000 1.668988
375.292800 4.182329
375.508700 4.212241
375.724600 1.812646
375.940500 4.218404
376.156400 1.488059
376.372400 0.950111
376.588300 0.882007
376.804300 1.002741
377.020300 4.247581
377.236200 4.258326
377.452200 1.021843
377.668200 1.008524
377.884300 4.260358
378.100300 2.163360
378.316400 2.283279
378.532400 4.271028
378.748500 1.288097
378.964600 1.914512
379.180700 4.308394
379.396800 1.674736
379.612900 1.424163
379.829100 1.185850
380.045200 1.566428
380.261400 1.038153
380.477600 1.394289
380.693800 1.376755
380.910000 1.225527
381.126200 1.273916
381.342400 1.618391
381.558700 1.280714
381.774900 1.353100
381.991200 4.304318
382.207500 1.790921
382.423800 4.339054
382.640100 4.341553
382.856400 1.328077
383.072800 1.550124
383.289100 1.140991
383.505500 1.192443
383.721900 1.022266
383.938200 4.339471
384.154600 1.769911
384.371100 4.337779
384.587500 1.122192
384.803900 1.933920
385.020400 4.355509
385.236800 1.442518
385.453300 2.596157
385.669800 1.232137
385.886300 0.983803
386.102800 4.360120
386.319400 1.555171
386.535900 4.371972
386.752500 1.705534
386.969000 1.598295
387.185600 1.103966
387.402200 1.546512
387.618800 1.306451
387.835500 1.582775
388.052100 1.230764
388.268700 1.578284
388.485400 1.003259
388.702100 1.193753
388.918800 1.588801
389.135500 1.097174
389.352200 1.336674
389.568900 1.438464
389.785600 1.004657
390.002400 1.158595
390.219200 1.402332
390.435900 1.709260
390.652700 1.145643
390.869500 1.994095
391.086300 1.175708
391.303200 1.426495
391.520000 1.096134
391.736900 1.927915
391.953700 1.120255
392.170600 1.660411
392.387500 1.470380
392.604400 1.249593
392.821300 1.896309
393.038300 1.131153
393.255200 1.344417
393.472200 1.756020
393.689100 1.074147
393.906100 0.998907
394.123100 1.144020
394.340100 1.131559
394.557200 1.404358
394.774200 1.196529
394.991200 0.909464
395.208300 1.020506
395.425400 0.875069
395.642500 1.242747
395.859600 0.932205
396.076700 0.979017
396.293800 1.087323
396.510900 1.324731
396.728100 1.094088
396.945300 1.047731
397.162400 0.975841
397.379600 1.268420
397.596800 0.845750
397.814000 0.948576
398.031300 0.912143
398.248500 1.029125
398.465800 0.894532
398.683000 0.952443
398.900300 1.019062
399.117600 1.055696
399.334900 0.934729
399.552200 0.877503
399.769600 0.921175
399.986900 0.926190
400.204300 0.836274
400.421600 0.879273
400.639000 0.805836
400.856400 1.008970
401.073800 0.749815
401.291200 0.831051
401.508700 0.807739
401.726100 0.694084
401.943600 0.802941
402.161000 0.896259
402.378500 0.838603
402.596000 0.760442
402.813500 0.788458
403.031000 0.794094
403.248600 0.677598
403.466100 0.749528
403.683700 0.709192
403.901300 0.726090
404.118900 0.700992
404.336500 0.816567
404.554100 0.728924
404.771700 0.768659
404.989300 0.605156
405.207000 0.822728
405.424600 0.733725
405.642300 0.651699
405.860000 0.669550
406.077700 0.622039
406.295400 0.719335
406.513100 0.711765
406.730900 0.579952
406.948600 0.657027
407.166400 0.633456
407.384200 0.581493
407.602000 0.641175
407.819800 0.580177
408.037600 0.667989
408.255400 0.592635
408.473300 0.625059
408.691100 0.507306
408.909000 0.633553
409.126900 0.531939
409.344800 0.556435
409.562700 0.584025
409.780600 0.637179
409.998500 0.565187
410.216500 0.570861
410.434400 0.502221
410.652400 0.582837
410.870400 0.535745
411.088400 0.584036
411.306400 0.519982
411.524400 0.542262
411.742400 0.502465
411.960500 0.545761
412.178500 0.519118
412.396600 0.582953
412.614700 0.509091
412.832800 0.565702
413.050900 0.485218
413.269000 0.528592
413.487100 0.476634
413.705300 0.500007
413.923400 0.517999
414.141600 0.514022
414.359800 0.473115
414.578000 0.460793
414.796200 0.446326
415.014400 0.496980
415.232600 0.419314
415.450900 0.504857
415.669200 0.442416
415.887400 0.533095
416.105700 0.496798
416.324000 0.477145
416.542300 0.434900
416.760600 0.449439
416.979000 0.427465
417.197300 0.448371
417.415700 0.414055
417.634100 0.388427
417.852400 0.505021
418.070800 0.448815
418.289300 0.431951
418.507700 0.455062
418.726100 0.393787
418.944600 0.372124
419.163000 0.399454
419.381500 0.422373
419.600000 0.417144
419.818500 0.452611
420.037000 0.402117
420.255500 0.376617
420.474100 0.381806
420.692600 0.408315
420.911200 0.358078
421.129800 0.382013
421.348300 0.383183
421.566900 0.370108
421.785600 0.439779
422.004200 0.391650
422.222800 0.379164
422.441500 0.386653
422.660100 0.381772
422.878800 0.389565
423.097500 0.360869
423.316200 0.377814
423.534900 0.359764
423.753600 0.388779
423.972400 0.332046
424.191100 0.387381
424.409900 0.377538
424.628700 0.348805
424.847500 0.386023
425.066300 0.376969
425.285100 0.375810
425.503900 0.337678
425.722800 0.343065
425.941600 0.387918
426.160500 0.332706
426.379300 0.325066
426.598200 0.346084
426.817100 0.374632
427.036100 0.343729
427.255000 0.360093
427.473900 0.382549
427.692900 0.380438
427.911800 0.365592
428.130800 0.376838
428.349800 0.325253
428.568800 0.320700
428.787800 0.336750
429.006800 0.328993
429.225900 0.320402
429.444900 0.344562
429.664000 0.275073
429.883100 0.402072
430.102200 0.313640
430.321300 0.323573
430.540400 0.350092
430.759500 0.353808
430.978700 0.316595
431.197800 0.341078
431.417000 0.313851
431.636200 0.300074
431.855300 0.311263
432.074500 0.344641
432.293800 0.342286
432.513000 0.317137
432.732200 0.313484
432.951500 0.338065
433.170700 0.352701
433.390000 0.292460
433.609300 0.336911
433.828600 0.323416
434.047900 0.309726
434.267300 0.306189
434.486600 0.310405
434.705900 0.301967
434.925300 0.310939
435.144700 0.343459
435.364100 0.332930
435.583500 0.322772
435.802900 0.310524
436.022300 0.339746
436.241800 0.313843
436.461200 0.303646
436.680700 0.280809
436.900100 0.322421
437.119600 0.340955
437.339100 0.312600
437.558600 0.334942
437.778200 0.288154
437.997700 0.322350
438.217300 0.365633
438.436800 0.286472
438.656400 0.363386
438.876000 0.264745
439.095600 0.312103
439.315200 0.300345
439.534800 0.303875
439.754500 0.321654
439.974100 0.329126
440.193800 0.301755
440.413500 0.320245
440.633100 0.342201
440.852800 0.318779
441.072500 0.332789
441.292300 0.343913
441.512000 0.327273
441.731800 0.342460
441.951500 0.336566
442.171300 0.349253
442.391100 0.338059
442.610900 0.316054
442.830700 0.302091
443.050500 0.334679
443.270300 0.301106
443.490200 0.318045
443.710100 0.363176
443.929900 0.331402
444.149800 0.347209
444.369700 0.326658
444.589600 0.352337
444.809500 0.314961
445.029500 0.380987
445.249400 0.337944
445.469400 0.343026
445.689400 0.296311
445.909300 0.328864
446.129300 0.341216
446.349300 0.369230
446.569400 0.328916
446.789400 0.369653
447.009400 0.384777
447.229500 0.347009
447.449600 0.357666
447.669600 0.336684
447.889700 0.345426
448.109800 0.323540
448.330000 0.340120
448.550100 0.363725
448.770200 0.366815
448.990400 0.367088
449.210600 0.403157
449.430700 0.402465
449.650900 0.375498
449.871100 0.368425
450.091400 0.371121
450.311600 0.423317
450.531800 0.379772
450.752100 0.404120
450.972400 0.371258
451.192600 0.380445
451.412900 0.405619
451.633200 0.390011
451.853500 0.368740
452.073900 0.393132
452.294200 0.387873
452.514600 0.402823
452.734900 0.371190
452.955300 0.409188
453.175700 0.375424
453.396100 0.379541
453.616500 0.435766
453.836900 0.393953
454.057400 0.383445
454.277800 0.380436
454.498300 0.466469
454.718800 0.410479
454.939300 0.418915
455.159700 0.383244
455.380300 0.418445
455.600800 0.412399
455.821300 0.413065
456.041900 0.406347
456.262400 0.421554
456.483000 0.454866
456.703600 0.357849
456.924200 0.436005
457.144800 0.447995
457.365400 0.452565
457.586000 0.469633
457.806700 0.464707
458.027400 0.463326
458.248000 0.470149
458.468700 0.458960
458.689400 0.422760
458.910100 0.464157
459.130800 0.482013
459.351600 0.488353
459.572300 0.463266
459.793100 0.455567
460.013800 0.484504
460.234600 0.518826
460.455400 0.498201
460.676200 0.479970
460.897000 0.456848
461.117800 0.520677
461.338700 0.472705
461.559500 0.519468
461.780400 0.481254
462.001300 0.530008
462.222200 0.536651
462.443100 0.515597
462.664000 0.486254
462.884900 0.514201
463.105900 0.493953
463.326800 0.560326
463.547800 0.550518
463.768700 0.600831
463.989700 0.523787
464.210700 0.532485
464.431700 0.516955
464.652800 0.529734
464.873800 0.547532
465.094800 0.537829
465.315900 0.571750
465.537000 0.598983
465.758100 0.583285
465.979200 0.584912
466.200300 0.568392
466.421400 0.609399
466.642500 0.604741
466.863700 0.565557
467.084800 0.628716
467.306000 0.567865
467.527200 0.589777
467.748400 0.624471
467.969600 0.589384
468.190800 0.631881
468.412000 0.649076
468.633300 0.631538
468.854500 0.631418
469.075800 0.649899
469.297000 0.636924
469.518300 0.697344
469.739600 0.647260
469.961000 0.579851
470.182300 0.651555
470.403600 0.583340
470.625000 0.607659
470.846300 0.711024
471.067700 0.652687
471.289100 0.638527
471.510500 0.634384
471.731900 0.623312
471.953300 0.761693
472.174800 0.629819
472.396200 0.674593
472.617700 0.640105
472.839100 0.662140
473.060600 0.689434
473.282100 0.694862
473.503600 0.720528
473.725100 0.746794
473.946700 0.760262
474.168200 0.775573
474.389800 0.717664
474.611300 0.770628
474.832900 0.753763
475.054500 0.700861
475.276100 0.720985
475.497700 0.812936
475.719300 0.772953
475.941000 0.719589
476.162600 0.697149
476.384300 0.751432
476.606000 0.747482
476.827700 0.884233
477.049400 0.771499
477.271100 0.797319
477.492800 0.741594
477.714500 0.842430
477.936300 0.825061
478.158000 0.855328
478.379800 0.808142
478.601600 0.785612
478.823400 0.844430
479.045200 0.867038
479.267000 0.839879
479.488800 0.779248
479.710700 0.870876
479.932500 0.985574
480.154400 0.777882
480.376300 0.811529
480.598200 0.869786
480.820100 0.824602
481.042000 0.917245
481.263900 0.910456
481.485900 0.810095
481.707800 0.855506
481.929800 0.834028
482.151700 0.992540
482.373700 0.907147
482.595700 0.850597
482.817700 0.850010
483.039800 0.944254
483.261800 0.907080
483.483800 0.893881
483.705900 0.834161
483.928000 0.875675
484.150100 0.890191
484.372100 0.956669
484.594300 0.877992
484.816400 0.931278
485.038500 0.890721
485.260600 0.956523
485.482800 0.978238
485.705000 1.039524
485.927100 0.998016
486.149300 1.009154
486.371500 1.034395
486.593700 1.042251
486.816000 0.982479
487.038200 0.934127
487.260500 1.033874
487.482700 0.970045
487.705000 0.997287
487.927300 0.969180
488.149600 0.932707
488.371900 0.907157
488.594200 0.997274
488.816500 1.033377
489.038900 1.121559
489.261200 1.020628
489.483600 1.100037
489.706000 0.944211
489.928400 1.171928
490.150800 1.002960
490.373200 1.091276
490.595600 1.069342
490.818000 1.055389
491.040500 1.033551
491.263000 0.954654
491.485400 1.085941
491.707900 1.023825
491.930400 1.061758
492.152900 0.974295
492.375500 1.146530
492.598000 1.116581
492.820500 1.036861
493.043100 0.972133
493.265700 1.228053
493.488200 1.107324
493.710800 1.135221
493.933400 1.141015
494.156100 1.098017
494.378700 0.985873
494.601300 1.292696
494.824000 1.173177
495.046600 1.020165
495.269300 0.974662
495.492000 1.150492
495.714700 1.115984
495.937400 1.120545
496.160100 1.365859
496.382900 1.186960
496.605600 1.035585
496.828400 1.086178
497.051100 1.259236
497.273900 1.315409
497.496700 1.173825
497.719500 1.108385
497.942300 0.986662
498.165200 1.423246
498.388000 1.113638
498.610900 1.032788
498.833700 1.025947
499.056600 1.059926
499.279500 1.055407
499.502400 1.133705
499.725300 1.226607
499.948200 1.102163
500.171200 1.189792
500.394100 1.308716
500.617100 1.178379
500.840000 1.162592
501.063000 1.200513
501.286000 1.134838
501.509000 1.150011
501.732000 1.072582
501.955100 1.335792
502.178100 1.358444
502.401200 1.107397
502.624200 1.220734
502.847300 1.144312
503.070400 1.200185
503.293500 1.131995
503.516600 1.261203
503.739700 1.098200
503.962800 1.208069
504.186000 1.054235
504.409200 1.418885
504.632300 1.186742
504.855500 1.105260
505.078700 1.194501
505.301900 1.347336
505.525100 1.133555
505.748300 1.117100
505.971600 1.206897
506.194800 1.335869
506.418100 1.200462
506.641400 1.578599
506.864700 1.031431
507.088000 1.062651
507.311300 1.190304
507.534600 1.169914
507.757900 1.318416
507.981300 1.195855
508.204600 1.290161
508.428000 1.130386
508.651400 1.231961
508.874800 1.153334
509.098200 1.208948
509.321600 1.069489
509.545000 1.064349
509.768500 1.356639
509.991900 1.056699
510.215400 1.515085
510.438800 0.964393
510.662300 1.117227
510.885800 1.407461
511.109300 1.183574
511.332900 1.152605
511.556400 1.230224
511.779900 1.105249
512.003500 1.170752
512.227000 1.189191
512.450600 1.404663
512.674200 1.479198
512.897800 1.189077
513.121400 1.389901
513.345100 1.293997
513.568700 1.141046
513.792300 1.198719
514.016000 1.069242
514.239700 1.000245
514.463400 1.085111
514.687100 1.321217
514.910800 1.375796
515.134500 1.335585
515.358200 1.181848
515.581900 1.133091
515.805700 1.035375
516.029500 1.481226
516.253200 1.011357
516.477000 1.290184
516.700800 0.997083
516.924600 1.056687
517.148500 1.060836
517.372300 1.276660
517.596100 1.079426
517.820000 1.166544
518.043900 0.997936
518.267700 1.247627
518.491600 0.965859
518.715500 1.080175
518.939500 1.110387
519.163400 1.183098
519.387300 1.093533
519.611300 1.151598
519.835200 0.979529
520.059200 1.077102
520.283200 1.200714
520.507200 1.192214
520.731200 1.304353
520.955200 1.024240
521.179200 1.050451
521.403300 0.946613
521.627300 1.125878
521.851400 1.081253
522.075500 1.106198
522.299600 0.982589
522.523700 1.091588
522.747800 0.979343
522.971900 1.013088
523.196000 1.087367
523.420200 0.945497
523.644300 0.953614
523.868500 1.078990
524.092700 0.950684
524.316900 1.061872
524.541100 1.254478
524.765300 1.066893
524.989500 0.841366
525.213800 0.994612
525.438000 0.971030
525.662300 1.012516
525.886500 0.941860
526.110800 1.023099
526.335100 0.853565
526.559400 1.024134
526.783700 0.921414
527.008100 0.951571
527.232400 0.964457
527.456800 1.012742
527.681100 0.941903
527.905500 1.059262
528.129900 0.845786
528.354300 0.964271
528.578700 0.907329
528.803100 0.891658
529.027600 0.828921
529.252000 0.947283
529.476500 0.794594
529.700900 0.887202
529.925400 0.807248
530.149900 0.894905
530.374400 0.855950
530.598900 0.888875
530.823400 0.930537
531.048000 0.829967
531.272500 0.788199
531.497100 0.851723
531.721700 0.734661
531.946200 0.952188
532.170800 0.802922
532.395400 0.862513
532.620000 0.751933
532.844700 0.707357
533.069300 0.853207
533.294000 0.840125
533.518600 0.793187
533.743300 0.793643
533.968000 0.832699
534.192700 0.680809
534.417400 0.733746
534.642100 0.832932
534.866800 0.839623
535.091600 0.823101
535.316300 0.797571
535.541100 0.753719
535.765900 0.751957
535.990700 0.720399
536.215500 0.693128
536.440300 0.693534
536.665100 0.677455
536.889900 0.761473
537.114800 0.659720
537.339600 0.653959
537.564500 0.714146
537.789400 0.761796
538.014300 0.733524
538.239200 0.679558
538.464100 0.674411
538.689000 0.681144
538.913900 0.683848
539.138900 0.599638
539.363800 0.672879
539.588800 0.672870
539.813800 0.638432
540.038800 0.669075
540.263800 0.627264
540.488800 0.578357
540.713800 0.617285
540.938900 0.652587
541.163900 0.618734
541.389000 0.614635
541.614000 0.568393
541.839100 0.621738
542.064200 0.588962
542.289300 0.647449
542.514400 0.651018
542.739600 0.645934
542.964700 0.573126
543.189900 0.572724
543.415000 0.581867
543.640200 0.689036
543.865400 0.556345
544.090600 0.541534
544.315800 0.537489
544.541000 0.580349
544.766200 0.579088
544.991500 0.557057
545.216700 0.539472
545.442000 0.528335
545.667300 0.506789
545.892600 0.578028
546.117900 0.523811
546.343200 0.541078
546.568500 0.473110
546.793800 0.473097
547.019200 0.515531
547.244500 0.485101
547.469900 0.480260
547.695300 0.445117
547.920600 0.433222
548.146000 0.496598
548.371500 0.461785
548.596900 0.505893
548.822300 0.409136
549.047800 0.428674
549.273200 0.401419
549.498700 0.442748
549.724200 0.450466
549.949600 0.432340
550.175100 0.435238
550.400700 0.390570
550.626200 0.443950
550.851700 0.433396
551.077300 0.395273
551.302800 0.415361
551.528400 0.438853
551.754000 0.414543
551.979600 0.423942
552.205200 0.414711
552.430800 0.400437
552.656400 0.441915
552.882000 0.368361
553.107700 0.392853
553.333300 0.366485
553.559000 0.358914
553.784700 0.385262
554.010400 0.380491
554.236100 0.355637
554.461800 0.379997
554.687500 0.341371
554.913200 0.335341
555.139000 0.339845
555.364800 0.325415
555.590500 0.328491
555.816300 0.334056
556.042100 0.370101
556.267900 0.304916
556.493700 0.294733
556.719500 0.323083
556.945400 0.318492
557.171200 0.339441
557.397100 0.329564
557.623000 0.280285
557.848800 0.298567
558.074700 0.288455
558.300600 0.344648
558.526600 0.291470
558.752500 0.272933
558.978400 0.266776
559.204400 0.248615
559.430300 0.272418
559.656300 0.267830
559.882300 0.253959
560.108300 0.276083
560.334300 0.268197
560.560300 0.259299
560.786300 0.261717
561.012400 0.258477
561.238400 0.271263
561.464500 0.269374
561.690500 0.279680
561.916600 0.243603
562.142700 0.228088
562.368800 0.226757
562.594900 0.263894
562.821100 0.239978
563.047200 0.238091
563.273300 0.257421
563.499500 0.224954
563.725700 0.211849
563.951900 0.218006
564.178100 0.232270
564.404300 0.211343
564.630500 0.232384
564.856700 0.212985
565.082900 0.191745
565.309200 0.224906
565.535500 0.216232
565.761700 0.191191
565.988000 0.195509
566.214300 0.201815
566.440600 0.190150
566.666900 0.194531
566.893200 0.203173
567.119600 0.178563
567.345900 0.187116
567.572300 0.183888
567.798700 0.177753
568.025000 0.177100
568.251400 0.202872
568.477800 0.172301
568.704300 0.168994
568.930700 0.155107
569.157100 0.173654
569.383600 0.164987
569.610000 0.158664
569.836500 0.172048
570.063000 0.157955
570.289500 0.174177
570.516000 0.168753
570.742500 0.156172
570.969000 0.159451
571.195600 0.156200
571.422100 0.155803
571.648700 0.143544
571.875200 0.153286
572.101800 0.167569
572.328400 0.160117
572.555000 0.151992
572.781600 0.147788
573.008200 0.155178
573.234900 0.142462
573.461500 0.141497
573.688200 0.141302
573.914900 0.134199
574.141500 0.129429
574.368200 0.130355
574.594900 0.131614
574.821600 0.125531
575.048400 0.136002
575.275100 0.135284
575.501800 0.137342
575.728600 0.124993
575.955400 0.114893
576.182100 0.133411
576.408900 0.119997
576.635700 0.126630
576.862600 0.122232
577.089400 0.112797
577.316200 0.116357
577.543100 0.114654
577.769900 0.118309
577.996800 0.116604
578.223700 0.115408
578.450500 0.108603
578.677400 0.109868
578.904400 0.102186
579.131300 0.107076
579.358200 0.105217
579.585100 0.099426
579.812100 0.100813
580.039100 0.091712
580.266000 0.089892
580.493000 0.095106
580.720000 0.095979
580.947000 0.086422
581.174100 0.091835
581.401100 0.086836
581.628100 0.100021
581.855200 0.090742
582.082200 0.093144
582.309300 0.091476
582.536400 0.081445
582.763500 0.075283
582.990600 0.079271
583.217700 0.072063
583.444900 0.078524
583.672000 0.075079
583.899100 0.069392
584.126300 0.063686
584.353500 0.074228
584.580700 0.075915
584.807900 0.072613
585.035100 0.084134
585.262300 0.079855
585.489500 0.076588
585.716700 0.073385
585.944000 0.070848
586.171300 0.076375
586.398500 0.067340
586.625800 0.067508
586.853100 0.065483
587.080400 0.062882
587.307700 0.054051
587.535000 0.054006
587.762400 0.061606
587.989700 0.053962
588.217100 0.069177
588.444500 0.061989
588.671800 0.055349
588.899200 0.062887
589.126600 0.057662
589.354000 0.055091
589.581500 0.048199
589.808900 0.060953
590.036300 0.059521
590.263800 0.063747
590.491300 0.047298
590.718700 0.054460
590.946200 0.055719
591.173700 0.050284
591.401200 0.051248
591.628800 0.058622
591.856300 0.057880
592.083800 0.054491
592.311400 0.059204
592.538900 0.043100
592.766500 0.053891
592.994100 0.051400
593.221700 0.054179
593.449300 0.053616
593.676900 0.051219
593.904600 0.051229
594.132200 0.047589
594.359800 0.045256
594.587500 0.041840
594.815200 0.052348
595.042900 0.054604
595.270500 0.051605
595.498300 0.040040
595.726000 0.049702
595.953700 0.055772
596.181400 0.038828
596.409200 0.038509
596.636900 0.047417
596.864700 0.054722
597.092500 0.054401
597.320300 0.049361
597.548100 0.046990
597.775900 0.052367
598.003700 0.039101
598.231500 0.046026
598.459400 0.047417
598.687200 0.047253
598.915100 0.047966
599.143000 0.051094
599.370900 0.045473
599.598800 0.041456
599.826700 0.038807
600.054600 0.043139
600.282500 0.042540
600.510500 0.025679
600.738400 0.033687
600.966400 0.038602
601.194400 0.035018
601.422300 0.021553
601.650300 0.027045
601.878300 0.034594
602.106400 0.043231
602.334400 0.042936
602.562400 0.034811
602.790500 0.037593
603.018500 0.029001
603.246600 0.034320
603.474700 0.038499
603.702800 0.033263
603.930900 0.035520
604.159000 0.039068
604.387100 0.034320
604.615200 0.037500
604.843400 0.033066
605.071500 0.036476
605.299700 0.027985
605.527900 0.026686
605.756100 0.037488
605.984300 0.024103
606.212500 0.017681
606.440700 0.012290
606.668900 0.017210
606.897200 0.017397
607.125400 0.023690
607.353700 0.024048
607.581900 0.021212
607.810200 0.022502
608.038500 0.023647
608.266800 0.009203
608.495100 0.017425
608.723500 0.023929
608.951800 0.023312
609.180100 0.005633
609.408500 0.031520
609.636900 0.014484
609.865300 0.014438
610.093600 0.027298
610.322000 0.015877
610.550500 0.025274
610.778900 0.021013
611.007300 0.025776
611.235700 0.025381
611.464200 0.029873
611.692700 0.015866
611.921100 0.020546
612.149600 0.016578
612.378100 0.018827
612.606600 0.025827
612.835100 0.022736
613.063700 0.026314
613.292200 0.025873
613.520800 0.004033
613.749300 0.018647
613.977900 0.029591
614.206500 0.032308
614.435100 0.028966
614.663700 0.023139
614.892300 0.028276
615.120900 0.012730
615.349500 0.034126
615.578200 0.025094
615.806800 0.034173
616.035500 0.021208
616.264200 0.022823
616.492900 0.025021
616.721600 0.005937
616.950300 0.005498
617.179000 0.019770
617.407700 0.019790
617.636500 0.012920
617.865200 0.016823
618.094000 0.010317
618.322700 0.002415
618.551500 -0.001748
618.780300 -0.004134
619.009100 0.002208
619.237900 0.018332
619.466700 0.021984
619.695600 0.011397
619.924400 0.011768
620.153300 0.020048
620.382100 0.002919
620.611000 0.003022
620.839900 -0.008840
621.068800 0.005171
621.297700 0.015131
621.526600 0.003491
621.755600 0.008921
621.984500 0.009598
622.213500 0.014809
622.442400 -0.004157
622.671400 0.033552
622.900400 0.012003
623.129400 0.009718
623.358400 0.026220
623.587400 0.015601
623.816400 0.007295
624.045400 0.034536
624.274500 0.009181
624.503500 -0.005332
624.732600 -0.004553
624.961700 0.019841
625.190800 -0.002912
625.419900 -0.006113
625.649000 0.020326
625.878100 0.015425
626.107200 -0.006368
626.336400 0.003647
626.565500 0.020579
626.794700 0.011300
627.023800 0.007722
627.253000 -0.005103
627.482200 0.015037
627.711400 0.012980
627.940600 0.007288
628.169800 -0.010621
628.399100 -0.002838
628.628300 0.003284
628.857600 0.018703
629.086800 0.016934
629.316100 -0.001650
629.545400 0.004998
629.774700 0.014381
630.004000 0.011664
630.233300 0.017431
630.462600 -0.003507
630.692000 0.004385
630.921300 0.016108
631.150700 -0.004008
631.380100 0.025779
631.609400 0.018407
631.838800 0.016041
632.068200 0.020201
632.297600 -0.002517
632.527100 -0.001789
632.756500 0.009340
632.985900 0.001078
633.215400 0.014184
633.444800 0.006707
633.674300 0.025861
633.903800 -0.000634
634.133300 -0.010297
634.362800 -0.007689
634.592300 -0.000529
634.821800 0.009255
635.051400 0.045326
635.280900 0.014597
635.510500 -0.024078
635.740000 -0.009626
635.969600 0.013310
636.199200 0.009129
636.428800 -0.001993
636.658400 0.032520
636.888000 0.022621
637.117700 0.002146
637.347300 -0.004862
637.577000 0.020822
637.806600 0.021817
638.036300 0.018690
638.266000 -0.002849
638.495700 0.029058
638.725400 0.011433
638.955100 -0.012708
639.184800 0.025007
639.414500 -0.006804
639.644300 -0.003986
639.874000 -0.003456
640.103800 -0.000323
640.333600 0.000046
640.563300 0.012722
640.793100 -0.017543
641.022900 0.020199
641.252800 -0.026121
641.482600 0.026945
641.712400 -0.016665
641.942300 -0.000323
642.172100 0.021576
642.402000 -0.024787
642.631900 -0.008569
642.861700 0.000454
643.091600 0.040471
643.321600 0.000158
643.551500 -0.034851
643.781400 0.005253
644.011300 0.016788
644.241300 0.017622
644.471200 0.004790
644.701200 0.004638
644.931200 0.009258
645.161200 -0.010627
645.391200 0.022262
645.621200 0.015665
645.851200 -0.045348
646.081200 -0.014978
646.311300 0.039479
646.541300 0.026696
646.771400 -0.000515
647.001500 -0.020982
647.231600 0.008023
647.461600 0.039234
647.691800 -0.014960
647.921900 0.015473
648.152000 -0.014266
648.382100 -0.007894
648.612300 0.014011
648.842400 0.027056
649.072600 0.010136
649.302800 0.009396
649.532900 0.016866
649.763100 0.009599
649.993300 0.005197
650.223600 0.030555
650.453800 -0.011871
650.684000 -0.004584
650.914300 -0.022468
651.144500 0.017662
651.374800 0.038873
651.605100 0.009653
651.835400 -0.005692
652.065700 0.003408
652.296000 0.012748
652.526300 0.002180
652.756600 -0.006353
652.987000 -0.002343
653.217300 -0.011078
653.447700 0.030035
653.678000 0.008470
653.908400 0.001835
654.138800 0.007569
654.369200 0.001599
654.599600 -0.004417
654.830000 0.004647
655.060500 -0.014637
655.290900 0.013883
655.521300 0.027982
655.751800 0.034098
655.982300 0.002910
656.212800 0.000974
656.443300 0.001458
656.673800 0.001232
656.904300 0.002850
657.134800 0.024912
657.365300 0.020080
657.595900 0.015723
657.826400 0.024706
658.057000 0.022920
658.287500 0.014289
658.518100 0.009190
658.748700 0.016909
658.979300 0.019105
659.209900 -0.010413
659.440600 -0.026276
659.671200 -0.037210
659.901800 -0.067678
660.132500 -0.048821
660.363200 -0.009724
660.593800 -0.002492
660.824500 -0.014109
661.055200 0.006150
661.285900 0.037547
661.516600 -0.052498
661.747400 0.013846
661.978100 0.004380
662.208800 0.025596
662.439600 -0.014989
662.670400 0.018712
662.901100 0.028635
663.131900 -0.013805
663.362700 0.029067
663.593500 0.034319
663.824300 0.046031
664.055200 0.034015
664.286000 -0.024703
664.516800 0.035962
664.747700 0.001023
664.978600 -0.014392
665.209400 -0.003453
665.440300 0.014203
665.671200 0.010400
665.902100 0.024806
666.133000 -0.009932
666.364000 -0.010784
666.594900 -0.003826
666.825900 -0.023959
667.056800 0.028044
667.287800 0.011225
667.518800 -0.008771
667.749700 0.010342
667.980700 -0.027994
668.211700 -0.051532
668.442800 0.005994
668.673800 0.024114
668.904800 -0.010180
669.135900 0.044869
669.366900 -0.016703
669.598000 -0.032346
669.829100 -0.026258
670.060200 0.025374
670.291300 0.014874
670.522400 0.013201
670.753500 0.010724
670.984600 0.035352
671.215700 0.012684
671.446900 0.042474
671.678100 0.012712
671.909200 0.033834
672.140400 0.046728
672.371600 -0.001912
672.602800 0.000712
672.834000 0.003044
673.065200 -0.014924
673.296400 -0.003105
673.527700 -0.008672
673.758900 0.008144
673.990200 0.014553
674.221400 0.014115
674.452700 0.010329
674.684000 -0.021430
674.915300 0.015175
675.146600 0.013051
675.377900 -0.002036
675.609300 -0.004023
675.840600 0.002383
676.071900 -0.008414
676.303300 -0.026440
676.534700 0.010797
676.766100 0.003755
676.997400 -0.003149
677.228800 -0.027328
677.460200 -0.016435
677.691700 -0.001139
677.923100 0.007076
678.154500 0.007456
678.386000 -0.008354
678.617400 0.021110
678.848900 -0.002242
679.080400 0.017121
679.311900 0.016868
679.543400 -0.032195
679.774900 -0.000061
680.006400 0.023411
680.237900 0.013365
680.469400 0.010149
680.701000 0.002509
680.932500 -0.025151
681.164100 -0.004150
681.395700 0.032559
681.627300 0.021050
681.858900 -0.004194
682.090500 -0.002869
682.322100 -0.033148
682.553700 -0.021820
682.785400 -0.036416
683.017000 0.024609
683.248700 0.008309
683.480300 -0.004006
683.712000 -0.017655
683.943700 -0.011277
684.175400 0.018994
684.407100 0.011422
684.638800 -0.000574
684.870500 0.001046
685.102300 0.016815
685.334000 0.008224
685.565800 0.020714
685.797500 0.025133
686.029300 0.003479
686.261100 0.006795
686.492900 0.004515
686.724700 -0.007161
686.956500 -0.010764
687.188300 -0.001140
687.420200 0.017494
687.652000 -0.019685
687.883800 0.000887
688.115700 -0.024315
688.347600 0.031880
688.579500 -0.008709
688.811400 -0.013918
689.043300 0.004338
689.275200 0.010359
689.507100 0.004808
689.739000 0.000812
689.971000 -0.027592
690.202900 -0.019535
690.434900 -0.009882
690.666900 -0.007918
690.898800 0.008870
691.130800 0.017541
691.362800 0.004650
691.594800 -0.011536
691.826900 0.003628
692.058900 0.041243
692.290900 0.016576
692.523000 0.009478
692.755000 0.006620
692.987100 0.003494
693.219200 0.008262
693.451300 0.013919
693.683400 0.009922
693.915500 -0.021043
694.147600 0.002157
694.379700 0.009994
694.611900 -0.000052
694.844000 -0.007988
695.076200 -0.003303
695.308300 0.008139
695.540500 0.016679
695.772700 -0.003126
696.004900 -0.012220
696.237100 -0.002446
696.469300 -0.035266
696.701600 0.008101
696.933800 0.016144
697.166000 -0.003475
697.398300 0.024436
697.630600 0.018880
697.862800 0.028803
698.095100 0.027248
698.327400 0.025153
698.559700 0.011856
698.792000 -0.017841
699.024300 -0.011907
699.256700 0.004516
699.489000 -0.002793
699.721400 0.019494
699.953700 -0.001599
700.186100 -0.018374
700.418500 0.009345
700.650900 -0.012915
700.883300 0.023706
701.115700 0.034021
701.348100 0.009803
701.580600 -0.028895
701.813000 -0.003070
702.045400 -0.016936
702.277900 -0.010725
702.510400 0.010669
702.742900 0.018910
702.975300 0.026940
703.207800 0.004803
703.440300 0.015128
703.672900 0.030655
703.905400 -0.008000
704.137900 -0.008218
704.370500 0.003556
704.603000 0.017386
704.835600 0.032918
705.068200 -0.038533
705.300800 0.025711
705.533400 -0.006408
705.766000 -0.016577
705.998600 0.014518
706.231200 -0.006239
706.463800 0.031851
706.696500 0.011744
706.929100 0.014814
707.161800 -0.024668
707.394500 0.015705
707.627200 -0.012724
707.859900 0.036860
708.092600 0.007665
708.325300 -0.010142
708.558000 0.018538
708.790700 -0.002646
709.023500 0.012012
709.256200 -0.008298
709.489000 0.007240
709.721700 0.004029
709.954500 -0.021922
710.187300 -0.012938
710.420100 0.006042
710.652900 -0.008985
710.885700 0.017116
711.118600 -0.015203
711.351400 -0.040576
711.584200 -0.001635
711.817100 -0.011551
712.050000 0.018644
712.282800 -0.037921
712.515700 -0.002080
712.748600 -0.011748
712.981500 0.005917
713.214400 0.005915
713.447400 -0.040163
713.680300 -0.003090
713.913200 -0.016407
714.146200 0.005316
714.379100 -0.000320
714.612100 0.009070
714.845100 -0.016502
715.078100 0.006482
715.311100 -0.014371
715.544100 -0.005661
715.777100 -0.018195
716.010200 -0.006821
716.243200 -0.026192
716.476200 0.016116
716.709300 0.028067
716.942400 -0.003003
717.175400 -0.003588
717.408500 0.015082
717.641600 0.009860
717.874700 -0.007946
718.107800 0.041196
718.341000 0.010863
718.574100 -0.025567
718.807200 0.026304
719.040400 0.034734
719.273600 0.027779
719.506700 0.014357
719.739900 0.023242
719.973100 -0.002597
720.206300 -0.027967
720.439500 0.006456
720.672700 0.029202
720.906000 0.015878
721.139200 -0.015512
721.372500 0.024569
721.605700 -0.008263
721.839000 0.032170
722.072300 -0.003674
722.305500 0.000937
722.538800 -0.008012
722.772100 -0.006929
723.005500 -0.031167
723.238800 0.049806
723.472100 0.012126
723.705500 -0.009479
723.938800 -0.008697
724.172200 0.012379
724.405600 0.036742
724.638900 0.084721
724.872300 0.003486
725.105700 -0.024285
725.339100 0.001781
725.572600 0.021362
725.806000 -0.015093
726.039400 0.005540
726.272900 0.016746
726.506300 0.025846
726.739800 -0.012734
726.973300 -0.002961
727.206800 0.014341
727.440300 0.020076
727.673800 0.011201
727.907300 0.009741
728.140800 0.017422
728.374300 0.018998
728.607900 0.010422
728.841400 -0.017430
729.075000 0.020418
729.308600 -0.019870
729.542100 -0.001926
729.775700 0.022897
730.009300 -0.008866
730.242900 -0.012272
730.476600 0.030482
730.710200 0.006987
730.943800 0.024638
731.177500 0.017599
731.411100 0.034672
731.644800 0.002939
731.878500 -0.005839
732.112200 -0.009017
732.345800 0.000010
732.579500 0.007629
732.813300 0.012883
733.047000 0.014655
733.280700 0.024815
733.514500 -0.006648
733.748200 -0.002574
733.982000 0.018273
734.215700 -0.011799
734.449500 -0.009484
734.683300 0.018139
734.917100 0.000710
735.150900 -0.000417
735.384700 -0.001444
735.618500 0.009524
735.852400 0.007809
736.086200 -0.010719
736.320100 0.011609
736.553900 0.004059
736.787800 0.000819
737.021700 0.003329
737.255600 -0.018706
737.489500 -0.011847
737.723400 0.003087
737.957300 -0.008206
738.191200 0.012988
738.425200 0.001357
738.659100 0.000584
738.893100 -0.034760
739.127100 0.010200
739.361000 0.009084
739.595000 0.036202
739.829000 0.013430
740.063000 -0.031385
740.297000 0.003421
740.531000 -0.029704
740.765100 -0.016284
740.999100 0.027281
741.233200 0.006031
741.467200 0.000313
741.701300 -0.012821
741.935400 -0.000986
742.169500 0.009211
742.403600 -0.002749
742.637700 -0.018303
742.871800 -0.038411
743.105900 -0.013644
743.340000 0.005513
743.574200 -0.007575
743.808300 0.005753
744.042500 -0.025602
744.276700 -0.003704
744.510800 -0.032322
744.745000 0.018131
744.979200 0.021387
745.213400 0.019206
745.447700 -0.011764
745.681900 -0.036790
745.916100 0.041204
746.150400 0.010606
746.384600 0.043880
746.618900 -0.023635
746.853200 -0.009847
747.087400 -0.008902
747.321700 -0.014881
747.556000 -0.005485
747.790300 0.027710
748.024700 -0.018433
748.259000 0.002859
748.493300 -0.017915
748.727700 -0.001267
748.962000 -0.009154
749.196400 -0.001064
749.430800 -0.000720
749.665200 -0.021957
749.899500 -0.012835
750.133900 0.002117
750.368400 0.012506
750.602800 -0.003103
750.837200 0.011670
751.071700 -0.002761
751.306100 -0.003680
751.540600 -0.009685
751.775000 0.000341
752.009500 0.019075
752.244000 -0.005380
752.478500 -0.018663
752.713000 -0.008892
752.947500 -0.023174
753.182000 0.045604
753.416600 -0.007369
753.651100 0.028677
753.885600 0.016350
754.120200 0.018417
754.354800 0.007583
754.589400 -0.026253
754.823900 -0.009311
755.058500 0.000117
755.293100 -0.003617
755.527800 0.012053
755.762400 0.015591
755.997000 0.022133
756.231700 0.002144
756.466300 -0.002661
756.701000 -0.007183
756.935600 0.010740
757.170300 0.010038
757.405000 0.010383
757.639700 0.018691
757.874400 -0.003546
758.109100 0.023023
758.343800 0.008002
758.578600 0.001750
758.813300 0.004857
759.048100 -0.003549
759.282800 0.005618
759.517600 0.013544
759.752400 0.013475
759.987200 0.006297
760.222000 0.013617
760.456800 0.005128
760.691600 0.011400
760.926400 0.004946
761.161300 0.005745
761.396100 0.005449
761.631000 0.015075
761.865800 0.025795
762.100700 0.010573
762.335600 0.009702
762.570500 0.004698
762.805400 -0.011762
763.040300 -0.017345
763.275200 -0.002054
763.510100 -0.009700
763.745000 0.012554
763.980000 0.020433
764.214900 -0.006958
764.449900 -0.000403
764.684900 -0.008517
764.919800 -0.003745
765.154800 -0.014040
765.389800 0.007002
765.624800 0.025005
765.859900 0.016454
766.094900 -0.008808
766.329900 -0.005577
766.565000 -0.010752
766.800000 -0.005891
767.035100 0.001503
767.270100 0.010838
767.505200 0.002543
767.740300 0.001655
767.975400 -0.005900
768.210500 0.014368
768.445600 -0.006128
768.680800 0.018240
768.915900 0.009408
769.151000 0.015090
769.386200 0.008903
769.621400 -0.024786
769.856500 0.022032
770.091700 -0.000028
770.326900 -0.019007
770.562100 -0.007155
770.797300 -0.010573
771.032500 0.007210
771.267700 0.014586
771.503000 0.011968
771.738200 0.021633
771.973500 -0.006197
772.208700 0.005121
772.444000 0.005098
772.679300 -0.027576
772.914600 0.010705
773.149900 -0.022394
773.385200 -0.010766
773.620500 -0.011824
773.855800 0.015182
774.091100 -0.015115
774.326500 0.006788
774.561800 0.029029
774.797200 0.045218
775.032600 0.039734
775.267900 -0.012083
775.503300 -0.002348
775.738700 -0.011126
775.974100 0.035126
776.209500 -0.005073
776.445000 0.010878
776.680400 0.007069
776.915800 -0.006693
777.151300 -0.007783
777.386800 -0.008572
777.622200 0.010757
777.857700 -0.034966
778.093200 0.010701
778.328700 -0.006183
778.564200 -0.004700
778.799700 -0.001902
779.035200 -0.001548
779.270700 -0.014943
779.506300 -0.020779
779.741800 -0.016749
779.977400 -0.003255
780.213000 0.014443
780.448500 -0.013036
780.684100 0.000950
780.919700 0.022801
781.155300 -0.015831
781.390900 0.033709
781.626500 0.016909
781.862200 0.018759
782.097800 0.011430
782.333500 -0.017348
782.569100 0.026057
782.804800 -0.014411
783.040500 -0.008899
783.276100 -0.026968
783.511800 -0.013159
783.747500 -0.000593
783.983200 -0.010417
784.219000 -0.003198
784.454700 0.016217
784.690400 0.039527
784.926200 0.016607
785.161900 0.003646
785.397700 0.012796
785.633500 -0.049664
785.869200 0.004666
786.105000 0.001041
786.340800 -0.014147
786.576600 0.023908
786.812400 0.016559
787.048300 -0.007023
787.284100 -0.010515
787.519900 -0.022315
787.755800 0.018526
787.991700 0.001340
788.227500 0.011576
788.463400 0.005248
788.699300 0.000710
788.935200 0.016899
789.171100 0.045262
789.407000 -0.003486
789.642900 0.010606
789.878900 -0.010079
790.114800 0.010280
790.350700 0.000551
790.586700 0.030088
790.822700 -0.018721
791.058600 0.000845
791.294600 -0.026577
791.530600 -0.026174
791.766600 -0.004895
792.002600 0.011882
792.238700 -0.010022
792.474700 0.021584
792.710700 -0.018299
792.946800 -0.009345
793.182800 -0.005611
793.418900 0.008472
793.655000 0.022782
793.891000 -0.004516
794.127100 0.033261
794.363200 -0.002936
794.599300 -0.020157
794.835500 -0.025493
795.071600 0.034042
795.307700 0.030508
795.543900 0.003922
795.780000 0.022844
796.016200 0.019782
796.252300 0.018992
796.488500 0.036694
796.724700 0.019386
796.960900 0.031866
797.197100 -0.015331
797.433300 -0.004855
797.669500 0.005320
797.905800 0.029648
798.142000 0.024179
798.378300 -0.009851
798.614500 0.000077
798.850800 0.007192
799.087100 -0.001284
799.323300 -0.027941
799.559600 -0.006241
799.795900 -0.027605
800.032200 -0.009054
800.268600 -0.016003
800.504900 0.074304
800.741200 0.001566
800.977600 0.024390
801.213900 0.018610
801.450300 0.019560
801.686700 0.041317
801.923000 -0.002342
802.159400 0.006062
802.395800 -0.036930
802.632200 -0.003187
802.868600 -0.025444
803.105100 -0.006803
803.341500 0.007759
803.577900 0.029718
803.814400 0.042805
804.050800 -0.035997
804.287300 -0.010830
804.523800 -0.036379
804.760300 0.007556
804.996800 -0.028437
805.233300 0.004076
805.469800 0.027043
805.706300 -0.019863
805.942800 -0.023019
806.179400 -0.011038
806.415900 -0.012488
806.652500 0.001353
806.889000 0.040478
807.125600 0.011540
807.362200 -0.013919
807.598800 0.025228
807.835400 -0.005507
808.072000 -0.015050
808.308600 0.022269
808.545200 -0.019191
808.781800 -0.027822
809.018500 0.031588
809.255100 0.013969
809.491800 0.022304
809.728400 0.006762
809.965100 -0.001000
810.201800 -0.020456
810.438500 -0.049702
810.675200 -0.013096
810.911900 0.020489
811.148600 0.026090
811.385300 -0.044213
811.622100 -0.015203
811.858800 -0.004034
812.095600 -0.012897
812.332300 0.052991
812.569100 -0.012397
812.805900 -0.038080
813.042700 -0.022219
813.279500 -0.022526
813.516300 0.004849
813.753100 0.015663
813.989900 -0.005555
814.226700 0.014663
814.463600 0.002790
814.700400 -0.014025
814.937300 -0.011717
815.174200 0.005479
815.411000 -0.002663
815.647900 -0.007929
815.884800 -0.069442
816.121700 -0.018647
816.358600 0.004692
816.595500 0.082530
816.832400 -0.041428
817.069400 0.043075
817.306300 -0.040711
817.543300 -0.027789
817.780200 -0.030979
818.017200 -0.043181
818.254200 0.003040
818.491200 -0.017871
818.728200 -0.004234
818.965200 -0.008596
819.202200 -0.001385
819.439200 0.009197
819.676200 -0.046646
819.913300 -0.029018
820.150300 -0.021328
820.387400 0.026889
820.624400 0.010502
820.861500 0.019890
821.098600 0.006709
821.335700 0.035465
821.572700 -0.020741
821.809900 -0.009353
822.047000 0.054659
822.284100 -0.028921
822.521200 0.020138
822.758400 -0.016469
822.995500 0.032805
823.232700 0.003465
823.469800 -0.007314
823.707000 -0.051595
823.944200 0.036823
824.181400 0.082401
824.418600 -0.007278
824.655800 0.032488
824.893000 0.010393
825.130200 -0.011402
825.367500 -0.082684
825.604700 -0.011728
825.841900 -0.013765
826.079200 0.022841
826.316500 0.031355
826.553700 0.006566
826.791000 0.046031
827.028300 0.026323
827.265600 -0.009314
827.502900 -0.001554
827.740200 0.015687
827.977600 -0.007706
828.214900 0.064736
828.452200 -0.030549
828.689600 0.045062
828.927000 0.006750
829.164300 -0.016372
829.401700 -0.009935
829.639100 0.032128
829.876500 -0.055388
830.113900 0.031323
830.351300 -0.003425
830.588700 -0.014621
830.826100 -0.029577
831.063600 0.059624
831.301000 0.040049
831.538500 0.010396
831.775900 0.021435
832.013400 0.025757
832.250900 0.009702
832.488400 -0.015072
832.725900 -0.029464
832.963400 -0.010685
833.200900 0.025630
833.438400 0.053887
833.675900 0.089229
833.913500 0.072918
834.151000 0.014004
834.388600 0.022022
834.626100 0.024951
834.863700 0.019764
835.101300 0.011008
835.338900 -0.002502
835.576500 0.018840
835.814100 0.039326
836.051700 -0.040352
836.289300 0.089484
836.526900 -0.021690
836.764600 0.003375
837.002200 0.074539
837.239900 -0.027079
837.477500 0.039160
837.715200 -0.117171
837.952900 -0.042960
838.190600 0.028133
838.428300 -0.062986
838.666000 0.037472
838.903700 0.056357
839.141400 0.066830
839.379100 0.069675
839.616900 0.002359
839.854600 0.002572
840.092400 -0.006163
840.330200 0.117274
840.567900 0.104212
840.805700 -0.064734
841.043500 0.036794
841.281300 -0.038980
841.519100 -0.003188
841.756900 -0.005709
841.994700 -0.113197
842.232600 0.038651
842.470400 0.124443
842.708200 -0.040192
842.946100 -0.039133
843.184000 -0.043623
843.421800 0.107153
843.659700 0.025596
843.897600 -0.189964
844.135500 0.002484
844.373400 -0.023230
844.611300 0.084428
844.849200 0.109111
845.087200 0.101973
845.325100 0.094397
845.563100 -0.056653
845.801000 -0.019566
846.039000 0.116579
846.277000 -0.108286
846.514900 -0.061320
846.752900 -0.174075
846.990900 -0.006344
847.228900 -0.104026
847.466900 0.086882
847.705000 0.089099
847.943000 -0.069112
848.181000 -0.073009
848.419100 0.068078
848.657100 0.279852
848.895200 -0.100844
849.133300 0.072515
849.371300 -0.022026
849.609400 -0.023883
849.847500 0.055243
850.085600 0.041640
850.323700 0.197008
850.561900 0.018129
850.800000 -0.031191
851.038100 0.014931
851.276300 -0.009097
851.514400 -0.086758
851.752600 0.053460
851.990800 -0.006546
852.228900 -0.059357
852.467100 0.049177
852.705300 0.011677
852.943500 0.085341
853.181700 0.031335
853.420000 -0.034377
853.658200 0.034806
853.896400 -0.017603
854.134700 0.071602
854.372900 0.052882
854.611200 0.020726
854.849500 0.024988
855.087700 0.006471
855.326000 0.122049
855.564300 -0.051709
855.802600 0.060015
856.040900 0.003395
856.279200 0.014330
856.517600 0.022085
856.755900 -0.008651
856.994200 -0.037792
857.232600 0.049968
857.471000 0.047199
857.709300 -0.005493
857.947700 -0.050266
858.186100 -0.006749
858.424500 -0.061296
858.662900 0.018411
858.901300 0.023433
859.139700 0.087479
859.378100 -0.117530
859.616600 0.046673
859.855000 -0.094643
860.093500 -0.016526
860.331900 0.028504
860.570400 -0.034191
860.808900 0.005425
861.047300 -0.018524
861.285800 0.049447
861.524300 0.039491
861.762800 -0.041848
862.001300 -0.036222
862.239900 0.042904
862.478400 -0.002674
862.716900 -0.019760
862.955500 -0.037181
863.194000 0.009563
863.432600 0.002193
863.671200 0.009931
863.909800 -0.071048
864.148300 -0.148533
864.386900 -0.041662
864.625500 -0.016835
864.864200 0.105580
865.102800 -0.104682
865.341400 0.035324
865.580000 -0.073064
865.818700 0.012775
866.057300 0.117803
866.296000 0.010340
866.534700 0.199106
866.773300 0.115361
867.012000 -0.016517
867.250700 -0.063159
867.489400 -0.053828
867.728100 0.110348
867.966900 0.035816
868.205600 0.013985
868.444300 -0.095931
868.683100 -0.027202
868.921800 -0.032657
869.160600 -0.082783
869.399300 -0.107974
869.638100 -0.026550
869.876900 0.026859
870.115700 -0.014456
870.354500 -0.007427
870.593300 0.036819
870.832100 0.126545
871.070900 -0.005355
871.309700 0.082228
871.548600 0.141989
871.787400 -0.033446
872.026300 -0.015360
872.265100 -0.102685
872.504000 -0.036426
872.742900 0.068179
872.981800 -0.031855
873.220700 0.029908
873.459600 0.137487
873.698500 -0.051315
873.937400 -0.031990
874.176300 -0.062404
874.415300 -0.083785
874.654200 0.055602
874.893200 0.043881
875.132100 -0.033843
875.371100 -0.016616
875.610100 0.128797
875.849100 0.025161
876.088000 -0.013589
876.327000 0.084000
876.566100 -0.027809
876.805100 0.081729
877.044100 -0.067419
877.283100 -0.090840
877.522200 -0.179739
877.761200 -0.009922
878.000300 -0.070660
878.239300 0.024261
878.478400 0.072910
878.717500 0.071896
878.956600 0.024691
879.195700 0.144262
879.434800 -0.130819
879.673900 0.074894
879.913000 -0.047818
880.152100 0.011598
880.391300 0.044719
880.630400 0.073181
880.869600 0.007208
881.108700 -0.046339
881.347900 0.094295
881.587100 0.023080
881.826200 -0.045593
882.065400 0.079632
882.304600 -0.014129
882.543800 -0.006958
882.783100 0.004062
883.022300 0.064664
883.261500 0.020614
883.500700 0.046767
883.740000 -0.035738
883.979200 0.094043
884.218500 0.077492
884.457800 0.018717
884.697100 -0.004411
884.936300 0.035020
885.175600 0.108899
885.414900 0.083542
885.654200 -0.021459
885.893600 0.097993
886.132900 0.017072
886.372200 -0.003712
886.611600 -0.139784
886.850900 -0.018207
887.090300 -0.058879
887.329600 0.012003
887.569000 0.053950
887.808400 0.039992
888.047800 -0.168940
888.287200 -0.086244
888.526600 -0.046979
888.766000 -0.094277
889.005400 0.039014
889.244800 -0.035165
889.484300 -0.059134
889.723700 0.151772
889.963200 0.222025
890.202600 0.036436
890.442100 -0.088822
890.681600 -0.135879
890.921100 0.127597
891.160600 -0.020782
891.400100 0.028346
891.639600 -0.051972
891.879100 0.038202
892.118600 0.033365
892.358100 -0.001300
892.597700 0.096250
892.837200 0.029471
893.076800 -0.051961
893.316300 -0.043664
893.555900 -0.083702
893.795500 0.056888
894.035100 -0.085264
894.274700 -0.098555
894.514300 0.042905
894.753900 -0.045924
894.993500 0.159562
895.233100 -0.109185
895.472700 -0.083042
895.712400 0.044954
895.952000 -0.049744
896.191700 0.023350
896.431400 0.003162
896.671000 0.035178
896.910700 0.052939
897.150400 0.123522
897.390100 -0.101834
897.629800 0.014778
897.869500 -0.136951
898.109200 0.066719
898.348900 0.142091
898.588700 0.062843
898.828400 0.035214
899.068200 0.003261
899.307900 -0.063422
899.547700 0.078345
899.787500 0.037197
900.027200 -0.224239
900.267000 0.045077
900.506800 0.259551
900.746600 -0.053522
900.986400 0.224912
901.226300 -0.036792
901.466100 0.054294
901.705900 0.027323
901.945800 -0.036823
902.185600 -0.078059
902.425500 -0.031120
902.665400 -0.106566
902.905200 -0.051187
903.145100 -0.022497
903.385000 -0.004186
903.624900 0.191824
903.864800 0.040710
904.104700 0.124392
904.344600 -0.018194
904.584600 -0.029804
904.824500 0.012419
905.064400 0.027888
905.304400 -0.009304
905.544400 -0.009570
905.784300 0.145627
906.024300 -0.001106
906.264300 -0.120937
906.504300 0.014066
906.744300 -0.014544
906.984300 -0.039366
907.224300 -0.016479
907.464300 0.093351
907.704300 0.084845
907.944400 0.009705
908.184400 0.036166
908.424500 0.027123
908.664500 -0.177978
908.904600 -0.056228
909.144700 -0.022600
909.384700 0.123983
909.624800 -0.049802
909.864900 -0.013524
910.105000 -0.030325
910.345200 -0.226930
910.585300 0.034588
910.825400 0.017873
911.065500 -0.030873
911.305700 0.006747
911.545800 -0.083150
911.786000 -0.018710
912.026200 -0.030111
912.266300 0.073988
912.506500 0.084103
912.746700 0.071517
912.986900 -0.101168
913.227100 -0.103329
913.467300 0.146106
913.707500 0.046428
913.947800 -0.008208
914.188000 0.149611
914.428300 0.136778
914.668500 0.095482
914.908800 0.083969
915.149000 -0.061413
915.389300 0.192565
915.629600 0.161801
915.869900 -0.048412
916.110200 0.077461
916.350500 -0.084834
916.590800 0.117602
916.831100 0.062624
917.071400 -0.097896
917.311800 0.077651
917.552100 0.004675
917.792500 -0.061767
918.032800 0.082946
918.273200 0.161801
918.513600 0.025395
918.753900 0.041076
918.994300 0.120897
919.234700 0.296256
919.475100 0.007358
919.715500 -0.106611
919.956000 0.164284
920.196400 -0.163446
920.436800 0.006195
920.677300 -0.146565
920.917700 0.044138
921.158200 -0.001507
921.398600 0.027678
921.639100 0.167775
921.879600 -0.335625
922.120100 -0.053593
922.360600 0.129002
922.601100 -0.026114
922.841600 0.057866
923.082100 0.097352
923.322600 -0.082404
923.563100 -0.107021
923.803700 0.005274
924.044200 -0.044089
924.284800 0.059768
924.525400 -0.013259
924.765900 0.086858
925.006500 0.091437
925.247100 -0.162492
925.487700 0.187548
925.728300 0.147384
925.968900 -0.003879
926.209500 -0.028994
926.450100 0.044552
926.690800 0.081899
926.931400 0.062606
927.172000 -0.131011
927.412700 0.174370
927.653300 0.022201
927.894000 0.245805
928.134700 0.093747
928.375400 0.149027
928.616100 0.101592
928.856800 -0.040664
929.097500 -0.002193
929.338200 -0.107553
929.578900 0.056980
929.819600 -0.081341
930.060400 0.126209
930.301100 0.522879
930.541900 -0.052452
930.782600 0.263940
931.023400 -0.141723
931.264200 0.248603
931.504900 0.194030
931.745700 0.018835
931.986500 0.003362
932.227300 0.237933
932.468100 0.109212
932.708900 0.049530
932.949800 0.047968
933.190600 0.092287
933.431400 0.031908
933.672300 0.553875
933.913100 -0.198260
934.154000 0.159685
934.394900 0.170645
934.635800 -0.181497
934.876600 0.144475
935.117500 0.058641
935.358400 0.105275
935.599300 -0.048034
935.840300 0.513982
936.081200 0.272861
936.322100 -0.153708
936.563000 3.430881
936.804000 0.223604
937.044900 -0.361927
937.285900 0.033710
937.526900 -0.043951
937.767800 0.151791
938.008800 -0.055784
938.249800 0.428158
938.490800 0.206916
938.731800 -0.061657
938.972800 1.636698
939.213800 -0.112878
939.454900 0.086118
939.695900 -0.108094
939.936900 0.160419
940.178000 -0.074271
940.419000 -0.327848
940.660100 3.370698
940.901200 0.092471
941.142200 -0.447536
941.383300 0.104618
941.624400 -0.028411
941.865500 0.708365
942.106600 0.012288
942.347700 -0.096758
942.588900 0.181339
942.830000 -0.226968
943.071100 -0.272039
943.312300 0.428600
943.553400 0.078529
943.794600 0.349374
944.035700 0.223782
944.276900 -0.178560
944.518100 -0.050331
944.759300 0.133483
945.000500 0.737464
945.241700 0.210145
945.482900 0.432036
945.724100 0.209740
945.965300 -0.119263
946.206600 0.200579
946.447800 -0.219515
946.689100 0.086350
946.930300 -0.673837
947.171600 0.513805
947.412800 -0.235277
947.654100 -0.012496
947.895400 0.431805
948.136700 0.299058
948.378000 -0.176634
948.619300 0.301750
948.860600 0.234690
949.101900 0.098349
949.343300 -0.083526
949.584600 0.163460
949.825900 0.581082
950.067300 0.350857
950.308600 -0.393325
950.550000 0.980663
950.791400 -0.445826
951.032700 -0.603513
951.274100 0.653598
951.515500 0.322061
951.756900 -0.174693
951.998300 -0.087420
952.239800 0.140503
952.481200 0.074081
952.722600 -0.320993
952.964000 0.018091
953.205500 0.242214
953.446900 -0.076714
953.688400 -0.040209
953.929900 0.284148
954.171300 -1.195290
954.412800 0.040986
954.654300 -0.051496
954.895800 -0.302083
955.137300 -0.289584
955.378800 -0.075022
955.620300 -0.376475
955.861800 0.118861
956.103400 3.118926
956.344900 0.206413
956.586500 -0.021839
956.828000 0.130596
957.069600 -0.107570
957.311100 -0.073804
957.552700 0.102297
957.794300 -0.189973
958.035900 -0.456778
958.277500 -0.371935
958.519100 3.125806
958.760700 0.457917
959.002300 2.632457
959.243900 0.179676
959.485600 -0.339604
959.727200 -0.088325
959.968800 -0.405316
960.210500 0.527977
960.452200 -0.607045
960.693800 -0.334017
960.935500 -3.215638
961.177200 1.220883
961.418900 -0.402166
961.660600 -0.263420
961.902300 0.856578
962.144000 2.673021
962.385700 2.791691
962.627400 0.028562
962.869200 -0.417072
963.110900 0.176522
963.352700 -0.296297
963.594400 -0.238862
963.836200 0.280234
964.077900 -0.128682
964.319700 0.292120
964.561500 -0.071018
964.803300 0.060068
965.045100 0.054981
965.286900 2.791691
965.528700 -0.180511
965.770500 -0.467613
966.012300 -0.251812
966.254200 0.326308
966.496000 -0.787318
966.737900 3.206826
966.979700 0.022827
967.221600 -0.019914
967.463400 0.436674
967.705300 0.311555
967.947200 -0.135458
968.189100 -0.111669
968.431000 -0.049591
968.672900 -0.011738
968.914800 -0.048986
969.156700 -0.429566
969.398700 -0.233164
969.640600 -0.376701
969.882500 -0.083095
970.124500 -0.472087
970.366400 -0.131326
970.608400 -0.258495
970.850400 -0.710663
971.092300 -0.218144
971.334300 -0.152676
971.576300 -0.440227
971.818300 -0.031816
972.060300 -0.286125
972.302300 -0.065760
972.544300 2.745075
972.786400 -0.023613
973.028400 1.951553
973.270400 0.470429
973.512500 0.116285
973.754500 0.170735
973.996600 2.994757
974.238700 0.705167
974.480700 -0.048849
974.722800 0.028419
974.964900 -0.179279
975.207000 -0.125467
975.449100 -0.617712
975.691200 -0.008493
975.933300 -0.584211
976.175500 -3.434569
976.417600 -0.158898
976.659700 0.363454
976.901900 3.021603
977.144000 -0.090281
977.386200 0.169887
977.628300 0.438947
977.870500 0.108649
978.112700 -0.125846
978.354900 1.520702
978.597100 -0.167124
978.839300 0.315846
979.081500 -0.190718
979.323700 0.000000
979.565900 -0.551937
979.808200 0.424556
980.050400 -0.122741
980.292600 3.008600
980.534900 3.012837
980.777100 -0.190990
981.019400 -0.203352
981.261700 0.121943
981.504000 0.150232
981.746200 -0.982271
981.988500 0.172525
982.230800 0.897016
982.473100 0.668821
982.715500 0.282503
982.957800 2.799341
983.200100 2.990339
983.442400 -0.280319
983.684800 -0.041393
983.927100 -0.095454
984.169500 -0.292412
984.411800 -0.191575
984.654200 -0.066947
984.896600 0.684845
985.139000 -2.061807
985.381400 0.429829
985.623800 3.218010
985.866200 -0.336543
986.108600 -2.853698
986.351000 3.089905
986.593400 -0.201814
986.835800 0.095427
987.078300 2.682145
987.320700 2.940516
987.563200 0.100821
987.805600 -0.337843
988.048100 0.275396
988.290600 2.760422
988.533100 -2.599883
988.775600 0.034497
989.018000 0.413710
989.260500 -0.441785
989.503100 -2.523746
989.745600 -0.955330
989.988100 0.000000
990.230600 0.378273
990.473200 1.157356
990.715700 0.366699
990.958200 2.523746
991.200800 -0.121213
991.443400 -3.361350
991.685900 -0.511036
991.928500 0.000000
992.171100 -1.099796
992.413700 0.031685
992.656300 3.161667
992.898900 0.776382
993.141500 3.078457
993.384100 0.208022
993.626700 -0.007632
993.869400 -0.038918
994.112000 0.310636
994.354700 0.298957
994.597300 -0.252654
994.840000 -3.210051
995.082600 -0.706949
995.325300 -0.716362
995.568000 -0.503483
995.810700 0.037200
996.053400 0.129891
996.296100 0.013788
996.538800 -0.100046
996.781500 0.175945
997.024200 -0.735399
997.267000 -0.395266
997.509700 0.085271
997.752400 2.768638
997.995200 -0.071391
998.237900 0.543205
998.480700 -0.330732
998.723500 0.000000
998.966200 -0.420773
999.209000 -2.217484
999.451800 -0.222709
999.694600 3.025715
999.937400 2.318063
1000.180200 -0.142094
1000.423000 1.092803
1000.665900 0.067215
1000.908700 2.396199
1001.151500 0.718941
1001.394400 0.101622
1001.637200 0.164643
1001.880100 0.778151
1002.123000 0.157059
1002.365800 2.599883
1002.608700 -0.217253
1002.851600 -0.133991
1003.094500 0.120218
1003.337400 2.217484
1003.580300 -2.269513
1003.823200 -0.304358
1004.066100 -0.067298
1004.309100 2.719331
1004.552000 -0.113943
1004.794900 1.592300
1005.037900 3.129368
1005.280800 0.142479
1005.523800 0.540102
1005.766700 2.783904
1006.009700 0.472087
1006.252700 -2.643453
1006.495700 -0.122594
1006.738700 -2.752816
1006.981700 0.670703
1007.224700 2.653213
1007.467700 -1.004658
1007.710700 2.610660
1007.953800 3.146128
1008.196800 0.727796
1008.439800 0.442530
1008.682900 0.533603
1008.925900 0.121713
1009.169000 2.884229
1009.412100 -2.643453
1009.655100 2.008600
1009.898200 -0.240857
1010.141300 -0.815004
1010.384400 0.614897
1010.627500 -0.605715
1010.870600 3.165244
1011.113700 0.100484
1011.356800 0.602718
1011.600000 -1.447953
1011.843100 0.189109
1012.086300 -2.813581
1012.329400 1.129260
1012.572600 0.000000
1012.815700 -0.000714
1013.058900 -3.143015
1013.302100 0.137604
1013.545200 2.960946
1013.788400 0.229705
1014.031600 -2.902547
1014.274800 0.079986
1014.518000 0.216006
1014.761300 -0.080622
1015.004500 0.000000
1015.247700 2.940516
1015.490900 0.000000
1015.734200 0.412431
1015.977400 1.194977
1016.220700 -2.550228
1016.464000 0.763184
1016.707200 -0.079181
1016.950500 2.378398
1017.193800 2.907949
1017.437100 -0.782689
1017.680400 0.715914
1017.923700 0.332438
1018.167000 0.913661
1018.410300 2.643453
1018.653600 -0.032147
1018.896900 3.021603
1019.140300 0.534650
1019.383600 0.884607
1019.627000 0.084564
1019.870300 -0.490786
1020.113700 0.823719
1020.357100 -0.360319
1020.600400 -0.060116
1020.843800 -0.229056
1021.087200 3.287130
1021.330600 0.000000
1021.574000 0.387729
1021.817400 -2.008600
1022.060800 0.000000
1022.304200 0.000000
1022.547700 2.902003
1022.791100 2.432969
1023.034500 -0.065608
