# Wavelength	Absorbance
197.780200 2.878522
197.984200 2.907949
198.188200 0.421674
198.392200 -0.507064
198.596300 -0.358738
198.800300 2.318063
199.004400 -0.233734
199.208500 2.866287
199.412600 -0.274065
199.616800 0.096540
199.820900 -0.680435
200.025100 2.877947
200.229200 -0.806320
200.433400 -0.150064
200.637600 2.046105
200.841800 0.717311
201.046100 3.008600
201.250300 0.125669
201.454600 0.116405
201.658900 0.543297
201.863100 0.148420
202.067400 2.760422
202.271800 3.093772
202.476100 0.136858
202.680500 0.586820
202.884800 -0.036575
203.089200 3.034628
203.293600 -0.280641
203.498000 0.728592
203.702400 -0.547202
203.906900 -0.576253
204.111300 0.000000
204.315800 0.076107
204.520300 0.410711
204.724800 0.915613
204.929300 2.396199
205.133800 0.909080
205.338400 2.820201
205.543000 -0.046576
205.747500 -0.660475
205.952100 -0.027853
206.156700 3.034628
206.361400 -2.743510
206.566000 2.187521
206.770600 0.660347
206.975300 -0.787960
207.180000 -1.845983
207.384700 -0.651839
207.589400 -3.164947
207.794100 2.480007
207.998900 2.622214
208.203600 0.256866
208.408400 -0.241642
208.613200 0.341635
208.818000 -0.444474
209.022800 -0.170487
209.227600 2.820201
209.432500 0.953706
209.637300 -0.281411
209.842200 2.294466
210.047100 -0.260155
210.252000 1.354108
210.456900 3.086360
210.661800 3.055378
210.866800 0.022402
211.071800 -0.020994
211.276700 0.048810
211.481700 2.736397
211.686700 2.632457
211.891800 0.295316
212.096800 0.066047
212.301800 2.890421
212.506900 0.201609
212.712000 2.965672
212.917100 0.330920
213.122200 2.866287
213.327300 0.109294
213.532500 -2.413300
213.737600 0.066872
213.942800 -1.138303
214.148000 -0.385590
214.353200 -3.104487
214.558400 -0.004302
214.763600 0.190839
214.968900 0.153016
215.174100 1.150245
215.379400 -2.630428
215.584700 2.846955
215.790000 3.021603
215.995300 0.093474
216.200700 0.134082
216.406000 -0.299121
216.611400 -0.271427
216.816800 2.833784
217.022200 0.142610
217.227600 1.041037
217.433000 2.536558
217.638400 0.227731
217.843900 -0.307470
218.049400 -2.585461
218.254800 0.249366
218.460300 0.028597
218.665900 3.186674
218.871400 0.327644
219.076900 0.118766
219.282500 2.960946
219.488100 -0.176221
219.693600 2.783904
219.899200 3.267641
220.104900 0.235834
220.310500 -0.892404
220.516100 0.000000
220.721800 -0.011505
220.927500 3.071145
221.133200 -0.096692
221.338900 0.366709
221.544600 2.846955
221.750300 1.511457
221.956100 -0.337360
222.161800 2.338456
222.367600 0.041711
222.573400 -0.461034
222.779200 -2.940018
222.985000 -3.138934
223.190900 0.972128
223.396700 -0.368274
223.602600 2.632457
223.808500 -0.147265
224.014400 2.853698
224.220300 0.191998
224.426200 -0.288843
224.632200 2.727541
224.838100 0.199340
225.044100 -0.242210
225.250100 0.042372
225.456100 2.653213
225.662100 -0.328013
225.868100 -0.632563
226.074200 -0.401770
226.280200 -2.726727
226.486300 2.846955
226.692400 0.000000
226.898500 0.357894
227.104600 2.294466
227.310700 3.111934
227.516900 0.058538
227.723000 -0.769233
227.929200 1.068162
228.135400 -0.326067
228.341600 2.622214
228.547800 0.572933
228.754100 0.395365
228.960300 -0.574031
229.166600 -2.859138
229.372900 -0.224311
229.579100 -0.092199
229.785500 2.791691
229.991800 0.845098
230.198100 -0.201516
230.404500 -0.326247
230.610800 -0.214119
230.817200 0.000000
231.023600 0.070877
231.230000 0.562473
231.436400 0.408779
231.642900 2.718502
231.849300 -0.397519
232.055800 -0.796901
232.262300 0.229357
232.468800 1.959041
232.675300 0.049322
232.881800 -0.159785
233.088400 -0.321624
233.294900 -0.448467
233.501500 -0.396850
233.708100 0.000000
233.914700 -0.355735
234.121300 -2.447158
234.327900 0.268845
234.534600 2.682145
234.741300 -0.147167
234.947900 -0.203622
235.154600 0.331749
235.361300 0.227121
235.568000 -0.003700
235.774800 0.542184
235.981500 -0.146977
236.188300 0.000000
236.395100 -0.026150
236.601800 -2.630428
236.808700 -0.105752
237.015500 0.065999
237.222300 2.853698
237.429200 0.679829
237.636000 -0.039457
237.842900 1.851258
238.049800 0.072217
238.256700 -0.336237
238.463600 3.063333
238.670600 2.970812
238.877500 3.161967
239.084500 -2.672098
239.291500 0.436057
239.498500 2.245513
239.705500 -0.317018
239.912500 -1.073456
240.119500 -0.817660
240.326600 -1.022122
240.533700 -3.183270
240.740700 2.621176
240.947800 0.700304
241.154900 0.684436
241.362100 3.108227
241.569200 -0.393258
241.776400 -0.146687
241.983500 0.305337
242.190700 0.463316
242.397900 -3.082426
242.605100 -0.205691
242.812400 -0.471095
243.019600 3.242293
243.226900 2.710117
243.434100 -0.153415
243.641400 -0.338054
243.848700 -0.373305
244.056000 -2.374748
244.263400 -0.717671
244.470700 0.635627
244.678100 0.198765
244.885400 2.945469
245.092800 -0.137399
245.300200 -0.640760
245.507600 0.359661
245.715100 0.449168
245.922500 1.071882
246.130000 -0.954243
246.337500 0.324416
246.544900 0.061746
246.752400 0.855003
246.960000 0.281583
247.167500 0.083113
247.375000 -2.045323
247.582600 0.206171
247.790200 -1.349971
247.997800 0.154142
248.205400 3.262925
248.413000 0.688047
248.620600 1.312568
248.828300 0.684752
249.035900 -0.224673
249.243600 0.909080
249.451300 0.907647
249.659000 3.192567
249.866700 0.217838
250.074500 0.037133
250.282200 0.012242
250.490000 1.182754
250.697800 2.846955
250.905600 -0.594444
251.113400 0.124429
251.321200 0.615823
251.529000 -0.909954
251.736900 0.197533
251.944700 3.186674
252.152600 0.394166
252.360500 2.710117
252.568400 2.662758
252.776300 -0.473633
252.984300 2.902003
253.192200 2.985426
253.400200 0.243922
253.608200 -0.030545
253.816200 1.328153
254.024200 2.872739
254.232200 -0.710508
254.440200 -2.184691
254.648300 0.060107
254.856400 2.701568
255.064400 0.066704
255.272500 3.097604
255.480600 -0.027431
255.688800 -3.017033
255.896900 -0.128469
256.105100 3.284882
256.313200 1.080719
256.521400 2.827369
256.729600 -0.016860
256.937800 0.276011
257.146000 0.018341
257.354300 0.000000
257.562500 1.789147
257.770800 0.000000
257.979100 0.128648
258.187400 -0.073089
258.395700 0.153366
258.604000 0.587470
258.812400 0.734387
259.020700 3.026125
259.229100 3.093772
259.437500 2.975891
259.645900 1.526284
259.854300 -0.180284
260.062700 0.020994
260.271100 -0.069905
260.479600 3.097604
260.688100 2.562293
260.896500 -0.055071
261.105000 -0.244549
261.313500 1.206203
261.522100 3.142702
261.730600 -0.062213
261.939200 2.701568
262.147700 -0.060872
262.356300 0.053993
262.564900 0.089400
262.773500 2.907411
262.982200 1.783409
263.190800 -2.846337
263.399500 3.206826
263.608100 3.039017
263.816800 0.163056
264.025500 0.724101
264.234200 -0.916088
264.442900 -0.425488
264.651700 0.137134
264.860400 -0.112488
265.069200 3.051153
265.278000 2.990339
265.486800 0.035873
265.695600 2.450249
265.904400 2.950851
266.113300 0.265429
266.322100 -0.041154
266.531000 -0.694984
266.739900 1.595496
266.948800 3.125806
267.157700 2.185825
267.366600 1.383280
267.575500 2.799341
267.784500 0.595986
267.993500 0.087883
268.202400 2.970812
268.411400 0.513747
268.620500 -0.328729
268.829500 2.775974
269.038500 -0.918724
269.247600 -0.098429
269.456600 -1.073826
269.665700 0.190426
269.874800 0.346310
270.083900 1.014723
270.293100 0.000000
270.502200 0.000401
270.711400 -0.719232
270.920500 0.272683
271.129700 0.354999
271.338900 0.256472
271.548100 2.691965
271.757300 0.339113
271.966600 -0.152154
272.175800 3.277609
272.385100 0.143130
272.594400 2.970812
272.803700 0.261935
273.013000 -0.046997
273.222300 2.994757
273.431600 0.194897
273.641000 3.209783
273.850400 2.701568
274.059700 2.945961
274.269100 0.090920
274.478500 1.278754
274.688000 0.203551
274.897400 -0.265972
275.106900 -0.698970
275.316300 -0.209911
275.525800 3.067071
275.735300 -2.413300
275.944800 1.126823
276.154300 0.542184
276.363900 -0.105758
276.573400 0.096596
276.783000 2.965672
276.992600 -0.151740
277.202200 3.047275
277.411800 -0.446516
277.621400 -0.411393
277.831000 0.375086
278.040700 0.134961
278.250300 -0.075221
278.460000 2.935507
278.669700 0.236948
278.879400 -0.485585
279.089100 -0.342262
279.298900 2.929930
279.508600 0.142054
279.718400 3.272770
279.928100 -2.478566
280.137900 0.369036
280.347700 0.097163
280.557600 -0.064769
280.767400 3.039017
280.977200 0.286696
281.187100 -3.058805
281.397000 0.081731
281.606900 -2.709270
281.816800 1.106965
282.026700 2.357935
282.236600 -0.147423
282.446600 -0.036191
282.656500 -3.307924
282.866500 2.791691
283.076500 2.338456
283.286500 0.268940
283.496500 -0.208950
283.706500 1.492438
283.916600 -0.328782
284.126600 -1.898412
284.336700 2.966142
284.546800 2.587711
284.756900 0.179378
284.967000 2.896526
285.177100 3.042969
285.387300 -2.507856
285.597400 0.145460
285.807600 -0.692439
286.017800 0.387372
286.228000 -1.954243
286.438200 1.499336
286.648400 0.755825
286.858700 3.265290
287.068900 0.385674
287.279200 -0.103410
287.489500 -0.215455
287.699800 0.467884
287.910100 2.621176
288.120400 0.303765
288.330800 -0.805607
288.541100 1.018500
288.751500 2.217484
288.961900 0.859338
289.172300 -2.790285
289.382700 0.661517
289.593100 2.913284
289.803500 0.000000
290.014000 2.980458
290.224500 0.119166
290.434900 0.000000
290.645400 1.368930
290.855900 0.607890
291.066500 0.274555
291.277000 -0.185126
291.487500 2.768638
291.698100 2.768638
291.908700 0.153765
292.119300 0.239641
292.329900 0.507675
292.540500 -0.155308
292.751100 -0.033281
292.961800 -2.819544
293.172400 0.480352
293.383100 -2.413300
293.593800 0.044392
293.804500 -0.663120
294.015200 -0.178206
294.226000 -2.859138
294.436700 -0.119214
294.647500 0.235859
294.858200 3.074816
295.069000 0.171717
295.279800 2.736397
295.490600 -2.290035
295.701500 0.140630
295.912300 3.082785
296.123200 3.247728
296.334000 0.240765
296.544900 0.664562
296.755800 0.280874
296.966700 2.872156
297.177700 2.945961
297.388600 -0.330286
297.599500 -0.804938
297.810500 0.270714
298.021500 3.149219
298.232500 0.525212
298.443500 1.690196
298.654500 0.227172
298.865600 0.416536
299.076600 -0.452237
299.287700 -2.535294
299.498800 0.118698
299.709900 0.293477
299.921000 3.234517
300.132100 3.038620
300.343200 0.526936
300.554400 0.290811
300.765500 0.094030
300.976700 -2.726727
301.187900 0.596631
301.399100 2.813581
301.610300 0.283030
301.821500 0.545195
302.032800 -0.066654
302.244100 -0.101145
302.455300 0.857055
302.666600 3.063333
302.877900 0.718486
303.089200 -0.807013
303.300600 0.450115
303.511900 0.124474
303.723300 -0.187319
303.934600 2.884795
304.146000 -1.568202
304.357400 -0.896835
304.568800 0.399797
304.780300 1.520191
304.991700 -0.155401
305.203100 -0.688629
305.414600 0.208932
305.626100 -0.184100
305.837600 0.570696
306.049100 -0.232200
306.260600 0.324425
306.472200 2.245513
306.683700 -0.225180
306.895300 -0.414262
307.106900 3.231724
307.318400 3.034628
307.530100 1.211002
307.741700 2.806180
307.953300 3.332236
308.165000 0.000000
308.376600 0.266594
308.588300 0.208066
308.800000 -0.118061
309.011700 0.082849
309.223400 3.125806
309.435100 2.450249
309.646900 0.254645
309.858600 0.195858
310.070400 0.543584
310.282200 -1.343127
310.494000 0.047580
310.705800 0.309064
310.917600 -0.159551
311.129500 0.794783
311.341300 -0.006966
311.553200 0.163379
311.765100 0.178778
311.977000 0.902153
312.188900 0.395816
312.400800 0.031905
312.612700 1.340739
312.824700 0.241268
313.036600 0.124738
313.248600 -0.038849
313.460600 0.665112
313.672600 0.666555
313.884600 0.214787
314.096700 -0.109387
314.308700 0.670461
314.520800 1.689855
314.732800 0.179281
314.944900 3.146128
315.157000 0.479198
315.369200 3.082785
315.581300 3.082785
315.793400 -0.218360
316.005600 3.226342
316.217700 0.272780
316.429900 0.734889
316.642100 2.469233
316.854300 3.093772
317.066600 0.688199
317.278800 3.417139
317.491100 0.684433
317.703300 0.006455
317.915600 0.157512
318.127900 0.505742
318.340200 -0.157668
318.552500 1.416423
318.764900 -0.186266
318.977200 0.746511
319.189600 -0.020572
319.401900 0.607780
319.614300 0.797861
319.826700 3.192289
320.039200 0.539342
320.251600 0.333065
320.464000 0.775158
320.676500 0.335871
320.889000 2.465383
321.101400 0.558604
321.313900 1.020234
321.526500 3.516800
321.739000 3.376577
321.951500 0.464728
322.164100 1.293731
322.376600 0.576785
322.589200 3.362859
322.801800 0.150520
323.014400 3.360972
323.227000 0.337843
323.439700 1.252742
323.652300 0.665791
323.865000 3.374748
324.077700 0.345654
324.290400 0.802412
324.503100 3.378580
324.715800 0.746908
324.928500 0.566559
325.141200 3.384174
325.354000 3.583765
325.566800 3.389875
325.779600 0.879743
325.992400 0.706184
326.205200 0.475878
326.418000 0.555807
326.630800 0.709922
326.843700 0.800112
327.056600 3.478999
327.269400 0.446626
327.482300 0.946529
327.695200 0.247030
327.908200 0.702894
328.121100 1.333356
328.334000 0.479675
328.547000 1.346654
328.760000 3.502700
328.973000 1.533660
329.186000 0.393170
329.399000 0.485445
329.612000 0.869332
329.825100 3.485153
330.038100 1.695685
330.251200 3.572872
330.464300 0.345909
330.677400 1.394934
330.890500 1.554960
331.103600 3.526469
331.316700 0.866723
331.529900 3.658298
331.743100 1.105312
331.956200 3.661339
332.169400 1.243383
332.382600 3.520876
332.595900 0.751150
332.809100 3.604766
333.022300 0.383152
333.235600 0.415458
333.448900 0.783662
333.662200 1.274927
333.875500 0.747776
334.088800 3.518251
334.302100 1.365772
334.515400 3.647089
334.728800 0.723316
334.942200 1.442265
335.155500 0.721102
335.368900 1.171403
335.582300 1.227579
335.795800 1.169112
336.009200 0.825269
336.222700 0.819900
336.436100 0.735808
336.649600 0.618702
336.863100 0.309257
337.076600 1.134789
337.290100 0.402931
337.503600 1.297350
337.717200 1.384542
337.930700 0.640290
338.144300 0.391162
338.357900 3.656290
338.571500 0.455359
338.785100 1.256047
338.998700 0.996221
339.212400 0.656648
339.426000 3.712144
339.639700 0.659092
339.853300 1.135166
340.067000 0.966142
340.280700 0.640113
340.494500 3.790074
340.708200 3.745543
340.921900 1.087374
341.135700 3.715669
341.349500 0.648840
341.563300 0.831462
341.777100 0.792378
341.990900 3.831166
342.204700 1.481589
342.418500 0.645736
342.632400 3.830460
342.846300 1.230638
343.060100 0.338147
343.274000 0.885018
343.487900 0.921383
343.701900 0.844820
343.915800 1.140775
344.129700 3.873611
344.343700 1.018339
344.557700 1.214731
344.771700 3.809694
344.985700 0.743361
345.199700 3.834484
345.413700 0.891880
345.627700 3.783332
345.841800 1.110853
346.055900 1.406966
346.269900 0.673575
346.484000 1.093115
346.698100 0.845682
346.912300 3.850340
347.126400 0.650739
347.340600 1.093663
347.554700 0.786007
347.768900 0.852094
347.983100 0.925024
348.197300 0.970691
348.411500 3.181901
348.625700 0.800061
348.840000 3.898615
349.054200 3.926085
349.268500 1.998647
349.482800 1.647462
349.697100 0.762970
349.911400 3.877832
350.125700 3.910571
350.340000 3.937869
350.554400 1.430707
350.768700 1.499507
350.983100 0.752873
351.197500 1.843923
351.411900 0.663253
351.626300 1.541618
351.840700 1.778340
352.055200 1.036544
352.269600 1.169186
352.484100 3.950851
352.698600 0.729762
352.913100 0.898162
353.127600 0.994653
353.342100 3.948266
353.556600 0.823572
353.771200 4.007534
353.985800 1.084505
354.200300 0.848472
354.414900 1.691059
354.629500 3.907143
354.844100 3.994273
355.058800 3.971879
355.273400 3.971369
355.488100 3.989138
355.702700 0.757183
355.917400 1.698371
356.132100 4.015527
356.346800 0.983305
356.561500 4.004364
356.776300 1.168827
356.991000 1.108469
357.205800 0.721974
357.420600 1.069648
357.635300 1.861471
357.850100 1.038614
358.065000 0.983760
358.279800 0.848289
358.494600 1.481428
358.709500 1.404353
358.924300 1.562500
359.139200 1.132342
359.354100 1.197917
359.569000 1.399008
359.783900 0.841446
359.998900 1.348938
360.213800 0.937520
360.428800 0.975360
360.643800 3.982497
360.858700 1.101808
361.073700 4.040048
361.288800 0.675346
361.503800 4.026452
361.718800 0.648452
361.933900 1.888749
362.148900 0.919609
362.364000 1.267986
362.579100 0.828581
362.794200 4.002986
363.009300 2.233401
363.224500 0.781030
363.439600 1.034831
363.654800 1.850298
363.869900 0.985589
364.085100 1.606647
364.300300 1.301412
364.515500 1.601944
364.730800 1.303177
364.946000 1.470147
365.161200 1.321598
365.376500 4.086360
365.591800 1.469344
365.807100 1.161264
366.022400 0.627341
366.237700 1.516920
366.453000 4.118562
366.668400 4.089375
366.883700 1.502532
367.099100 4.077622
367.314500 0.806073
367.529900 1.481103
367.745300 1.164313
367.960700 1.503914
368.176100 1.302786
368.391600 4.101850
368.607000 4.134305
368.822500 2.696927
369.038000 0.972925
369.253500 4.100405
369.469000 1.883172
369.684500 1.506546
369.900100 2.478689
370.115600 1.172503
370.331200 4.097847
370.546800 1.394739
370.762400 1.141816
370.978000 2.269141
371.193600 2.689377
371.409200 4.124798
371.624900 0.782129
371.840500 1.421461
372.056200 1.310017
372.271900 1.281584
372.487600 0.890817
372.703300 1.211361
372.919000 0.870102
373.134800 1.157667
373.350500 1.655068
373.566300 4.154637
373.782000 2.321859
373.997800 1.460228
374.213600 2.122614
374.429400 4.167613
374.645300 0.910661
374.861100 2.121994
375.077000 1.540488
375.292800 4.182329
375.508700 1.379094
375.724600 1.580158
375.940500 4.218404
376.156400 1.295036
376.372400 1.002818
376.588300 1.928632
376.804300 4.234720
377.020300 1.504071
377.236200 1.250152
377.452200 4.269816
377.668200 1.291273
377.884300 1.674897
378.100300 1.088318
378.316400 2.107188
378.532400 1.685567
378.748500 0.954612
378.964600 4.312452
379.180700 4.308394
379.396800 1.527903
379.612900 4.277861
379.829100 2.123702
380.045200 2.613662
380.261400 1.065815
380.477600 1.559417
380.693800 4.279302
380.910000 1.370791
381.126200 1.244599
381.342400 4.319959
381.558700 0.996015
381.774900 4.288607
381.991200 1.305623
382.207500 1.325218
382.423800 4.339054
382.640100 1.307326
382.856400 1.274637
383.072800 4.319502
383.289100 1.361592
383.505500 4.335458
383.721900 4.350442
383.938200 4.339471
384.154600 1.089827
384.371100 1.890621
384.587500 1.068896
384.803900 1.758364
385.020400 1.273083
385.236800 1.244733
385.453300 1.003425
385.669800 1.370355
385.886300 1.501607
386.102800 1.317544
386.319400 1.171242
386.535900 1.741545
386.752500 1.555434
386.969000 1.333445
387.185600 1.443570
387.402200 1.541071
387.618800 1.839471
387.835500 1.231409
388.052100 1.534059
388.268700 1.927087
388.485400 1.404065
388.702100 1.164731
388.918800 1.213172
389.135500 1.031170
389.352200 1.769955
389.568900 1.183301
389.785600 4.411367
390.002400 4.385195
390.219200 1.002066
390.435900 2.076374
390.652700 1.347972
390.869500 1.437614
391.086300 1.463519
391.303200 1.218363
391.520000 1.715040
391.736900 1.443456
391.953700 1.127181
392.170600 1.146175
392.387500 1.383150
392.604400 1.286503
392.821300 0.931543
393.038300 2.649476
393.255200 1.074663
393.472200 1.356756
393.689100 1.198567
393.906100 0.884314
394.123100 1.003334
394.340100 1.193785
394.557200 1.223295
394.774200 0.972158
394.991200 1.039906
395.208300 1.171329
395.425400 1.138882
395.642500 1.204513
395.859600 1.015796
396.076700 0.974746
396.293800 0.894194
396.510900 0.988548
396.728100 0.915677
396.945300 0.920133
397.162400 0.985543
397.379600 0.869175
397.596800 0.800244
397.814000 0.937948
398.031300 0.808295
398.248500 0.942527
398.465800 0.947741
398.683000 0.935401
398.900300 0.942904
399.117600 0.874695
399.334900 0.980197
399.552200 0.876749
399.769600 0.637799
399.986900 0.787166
400.204300 0.776125
400.421600 0.889126
400.639000 0.824232
400.856400 0.750706
401.073800 0.808718
401.291200 0.741765
401.508700 0.826502
401.726100 0.796478
401.943600 0.725803
402.161000 0.828736
402.378500 0.742899
402.596000 0.736772
402.813500 0.661624
403.031000 0.743352
403.248600 0.692856
403.466100 0.651170
403.683700 0.692557
403.901300 0.745838
404.118900 0.732505
404.336500 0.729237
404.554100 0.684917
404.771700 0.683892
404.989300 0.649401
405.207000 0.680073
405.424600 0.636080
405.642300 0.632935
405.860000 0.622692
406.077700 0.633215
406.295400 0.611629
406.513100 0.695079
406.730900 0.586917
406.948600 0.618608
407.166400 0.602248
407.384200 0.526834
407.602000 0.588151
407.819800 0.606842
408.037600 0.506043
408.255400 0.594274
408.473300 0.553522
408.691100 0.579618
408.909000 0.543757
409.126900 0.502778
409.344800 0.595815
409.562700 0.502359
409.780600 0.639997
409.998500 0.530121
410.216500 0.596440
410.434400 0.471975
410.652400 0.490101
410.870400 0.541789
411.088400 0.572350
411.306400 0.503229
411.524400 0.489247
411.742400 0.489404
411.960500 0.479938
412.178500 0.468133
412.396600 0.442332
412.614700 0.474657
412.832800 0.469405
413.050900 0.506189
413.269000 0.454319
413.487100 0.496656
413.705300 0.488783
413.923400 0.461111
414.141600 0.433706
414.359800 0.491218
414.578000 0.436316
414.796200 0.473835
415.014400 0.452883
415.232600 0.434446
415.450900 0.460653
415.669200 0.484615
415.887400 0.445717
416.105700 0.443047
416.324000 0.470224
416.542300 0.410907
416.760600 0.435137
416.979000 0.388291
417.197300 0.451016
417.415700 0.410494
417.634100 0.343510
417.852400 0.398562
418.070800 0.439248
418.289300 0.385446
418.507700 0.387125
418.726100 0.428013
418.944600 0.414228
419.163000 0.333359
419.381500 0.378541
419.600000 0.400307
419.818500 0.377376
420.037000 0.431316
420.255500 0.385558
420.474100 0.403514
420.692600 0.366225
420.911200 0.367186
421.129800 0.358866
421.348300 0.369475
421.566900 0.379123
421.785600 0.351173
422.004200 0.358858
422.222800 0.317213
422.441500 0.358655
422.660100 0.338234
422.878800 0.370523
423.097500 0.334972
423.316200 0.362544
423.534900 0.353667
423.753600 0.333377
423.972400 0.341383
424.191100 0.336134
424.409900 0.372579
424.628700 0.368071
424.847500 0.300450
425.066300 0.354446
425.285100 0.289059
425.503900 0.282560
425.722800 0.339829
425.941600 0.320746
426.160500 0.305470
426.379300 0.352116
426.598200 0.283031
426.817100 0.304037
427.036100 0.305869
427.255000 0.321840
427.473900 0.319558
427.692900 0.353104
427.911800 0.352866
428.130800 0.325104
428.349800 0.330834
428.568800 0.319542
428.787800 0.336537
429.006800 0.326856
429.225900 0.289014
429.444900 0.289099
429.664000 0.275685
429.883100 0.330367
430.102200 0.320955
430.321300 0.319022
430.540400 0.283599
430.759500 0.329567
430.978700 0.335375
431.197800 0.294894
431.417000 0.287407
431.636200 0.319371
431.855300 0.286967
432.074500 0.268770
432.293800 0.290888
432.513000 0.351990
432.732200 0.257511
432.951500 0.329013
433.170700 0.325138
433.390000 0.320625
433.609300 0.325601
433.828600 0.324472
434.047900 0.316803
434.267300 0.328864
434.486600 0.298118
434.705900 0.309409
434.925300 0.263565
435.144700 0.288069
435.364100 0.309660
435.583500 0.291333
435.802900 0.309878
436.022300 0.331601
436.241800 0.282564
436.461200 0.294044
436.680700 0.309607
436.900100 0.303917
437.119600 0.309329
437.339100 0.346904
437.558600 0.292666
437.778200 0.289242
437.997700 0.258164
438.217300 0.276137
438.436800 0.304867
438.656400 0.345368
438.876000 0.322565
439.095600 0.291766
439.315200 0.314277
439.534800 0.313435
439.754500 0.298198
439.974100 0.315105
440.193800 0.312608
440.413500 0.295055
440.633100 0.317441
440.852800 0.313675
441.072500 0.354891
441.292300 0.328405
441.512000 0.313455
441.731800 0.348445
441.951500 0.304032
442.171300 0.339808
442.391100 0.277316
442.610900 0.329730
442.830700 0.285408
443.050500 0.333756
443.270300 0.349037
443.490200 0.273886
443.710100 0.336179
443.929900 0.312589
444.149800 0.298023
444.369700 0.332785
444.589600 0.328568
444.809500 0.330738
445.029500 0.376457
445.249400 0.358685
445.469400 0.359500
445.689400 0.302186
445.909300 0.327956
446.129300 0.352605
446.349300 0.345034
446.569400 0.381776
446.789400 0.337679
447.009400 0.358022
447.229500 0.320396
447.449600 0.312051
447.669600 0.347181
447.889700 0.331649
448.109800 0.328812
448.330000 0.354322
448.550100 0.378232
448.770200 0.366211
448.990400 0.357575
449.210600 0.393416
449.430700 0.375363
449.650900 0.350724
449.871100 0.336532
450.091400 0.342050
450.311600 0.358401
450.531800 0.355721
450.752100 0.335201
450.972400 0.366197
451.192600 0.363266
451.412900 0.419828
451.633200 0.374188
451.853500 0.374703
452.073900 0.364058
452.294200 0.394990
452.514600 0.390076
452.734900 0.381680
452.955300 0.376774
453.175700 0.406030
453.396100 0.380290
453.616500 0.373341
453.836900 0.372975
454.057400 0.414521
454.277800 0.383142
454.498300 0.388738
454.718800 0.388635
454.939300 0.425010
455.159700 0.419265
455.380300 0.404361
455.600800 0.400935
455.821300 0.401678
456.041900 0.405171
456.262400 0.394148
456.483000 0.426703
456.703600 0.424351
456.924200 0.436862
457.144800 0.449424
457.365400 0.423782
457.586000 0.421029
457.806700 0.414315
458.027400 0.480041
458.248000 0.468882
458.468700 0.481469
458.689400 0.421618
458.910100 0.473168
459.130800 0.502500
459.351600 0.460637
459.572300 0.482533
459.793100 0.416574
460.013800 0.437856
460.234600 0.512299
460.455400 0.485842
460.676200 0.498806
460.897000 0.454546
461.117800 0.515696
461.338700 0.470873
461.559500 0.517454
461.780400 0.449881
462.001300 0.529120
462.222200 0.477867
462.443100 0.492708
462.664000 0.480545
462.884900 0.494649
463.105900 0.513925
463.326800 0.513979
463.547800 0.524472
463.768700 0.510002
463.989700 0.538689
464.210700 0.535257
464.431700 0.577245
464.652800 0.536445
464.873800 0.548439
465.094800 0.583158
465.315900 0.575174
465.537000 0.513591
465.758100 0.528755
465.979200 0.581710
466.200300 0.595299
466.421400 0.533033
466.642500 0.600904
466.863700 0.590586
467.084800 0.586605
467.306000 0.559939
467.527200 0.595429
467.748400 0.628957
467.969600 0.513366
468.190800 0.639506
468.412000 0.670285
468.633300 0.600661
468.854500 0.597446
469.075800 0.639537
469.297000 0.554122
469.518300 0.611031
469.739600 0.682549
469.961000 0.570024
470.182300 0.649081
470.403600 0.569451
470.625000 0.723250
470.846300 0.699624
471.067700 0.765617
471.289100 0.591375
471.510500 0.678473
471.731900 0.642495
471.953300 0.634019
472.174800 0.688306
472.396200 0.668926
472.617700 0.797901
472.839100 0.649414
473.060600 0.673179
473.282100 0.695402
473.503600 0.698160
473.725100 0.662590
473.946700 0.691647
474.168200 0.745089
474.389800 0.710972
474.611300 0.687748
474.832900 0.687344
475.054500 0.701450
475.276100 0.719609
475.497700 0.799184
475.719300 0.770262
475.941000 0.738768
476.162600 0.700547
476.384300 0.734070
476.606000 0.737436
476.827700 0.775535
477.049400 0.833668
477.271100 0.735167
477.492800 0.810456
477.714500 0.763689
477.936300 0.806666
478.158000 0.833759
478.379800 0.839613
478.601600 0.831218
478.823400 0.816729
479.045200 0.850194
479.267000 0.882031
479.488800 0.866253
479.710700 0.840926
479.932500 0.834206
480.154400 0.864107
480.376300 0.849456
480.598200 0.825288
480.820100 0.871762
481.042000 0.782082
481.263900 0.845853
481.485900 0.922120
481.707800 0.969871
481.929800 0.890130
482.151700 0.875959
482.373700 0.928233
482.595700 0.895930
482.817700 0.919943
483.039800 0.917523
483.261800 0.828102
483.483800 0.965764
483.705900 0.871668
483.928000 0.997301
484.150100 0.852108
484.372100 1.021915
484.594300 0.898363
484.816400 0.913608
485.038500 0.963018
485.260600 0.872757
485.482800 1.017177
485.705000 1.068189
485.927100 1.027371
486.149300 1.022840
486.371500 1.000368
486.593700 0.969772
486.816000 1.008430
487.038200 0.992765
487.260500 1.051624
487.482700 0.971654
487.705000 1.038724
487.927300 0.915945
488.149600 1.040607
488.371900 1.007426
488.594200 0.954647
488.816500 0.936539
489.038900 0.943279
489.261200 0.975400
489.483600 1.040898
489.706000 0.924101
489.928400 1.026753
490.150800 0.995377
490.373200 0.966133
490.595600 0.938398
490.818000 1.089442
491.040500 0.843197
491.263000 0.980293
491.485400 1.074640
491.707900 1.015615
491.930400 0.950957
492.152900 1.002155
492.375500 1.106850
492.598000 1.104164
492.820500 0.958531
493.043100 1.012332
493.265700 1.160458
493.488200 0.968044
493.710800 1.084120
493.933400 1.199203
494.156100 1.195449
494.378700 1.049118
494.601300 1.182707
494.824000 1.162248
495.046600 1.134858
495.269300 1.106217
495.492000 1.185025
495.714700 0.977949
495.937400 1.144158
496.160100 1.128295
496.382900 1.208299
496.605600 1.079824
496.828400 1.268878
497.051100 1.096410
497.273900 1.132396
497.496700 1.277978
497.719500 1.064075
497.942300 1.131533
498.165200 1.118339
498.388000 1.083543
498.610900 1.060641
498.833700 1.019604
499.056600 1.067135
499.279500 1.114985
499.502400 1.123634
499.725300 1.027437
499.948200 1.162830
500.171200 1.139083
500.394100 1.216812
500.617100 1.250430
500.840000 1.236457
501.063000 1.221884
501.286000 1.154807
501.509000 1.106396
501.732000 1.110196
501.955100 1.215101
502.178100 1.216064
502.401200 1.160537
502.624200 1.222301
502.847300 1.122709
503.070400 1.261857
503.293500 1.194616
503.516600 1.076021
503.739700 1.085223
503.962800 1.145652
504.186000 1.067628
504.409200 1.183034
504.632300 1.112087
504.855500 1.404807
505.078700 1.253584
505.301900 1.207748
505.525100 1.099240
505.748300 1.240835
505.971600 1.117355
506.194800 1.157187
506.418100 1.089107
506.641400 1.155023
506.864700 1.280318
507.088000 1.364405
507.311300 1.213793
507.534600 1.220136
507.757900 1.164509
507.981300 1.137846
508.204600 1.106922
508.428000 1.069566
508.651400 1.224454
508.874800 1.350782
509.098200 1.086074
509.321600 1.111562
509.545000 1.056860
509.768500 1.211523
509.991900 1.066601
510.215400 1.351270
510.438800 1.234595
510.662300 1.139447
510.885800 1.153865
511.109300 1.309861
511.332900 1.298910
511.556400 1.305880
511.779900 1.146295
512.003500 0.993782
512.227000 1.083626
512.450600 1.241324
512.674200 1.066353
512.897800 1.103615
513.121400 1.162003
513.345100 1.329494
513.568700 1.207541
513.792300 1.328705
514.016000 1.171651
514.239700 1.383014
514.463400 1.089177
514.687100 1.422521
514.910800 1.091061
515.134500 1.270253
515.358200 1.133880
515.581900 1.420323
515.805700 1.150730
516.029500 1.089272
516.253200 0.991238
516.477000 1.118129
516.700800 1.100233
516.924600 1.029065
517.148500 1.138443
517.372300 1.122533
517.596100 1.034732
517.820000 1.399295
518.043900 1.134967
518.267700 1.151758
518.491600 1.026211
518.715500 1.171028
518.939500 1.193354
519.163400 1.034223
519.387300 0.982884
519.611300 1.172096
519.835200 1.146314
520.059200 0.943872
520.283200 1.016209
520.507200 1.021082
520.731200 1.264965
520.955200 1.140877
521.179200 1.209221
521.403300 0.876875
521.627300 0.925504
521.851400 1.079958
522.075500 0.849892
522.299600 1.011278
522.523700 0.965532
522.747800 1.183553
522.971900 1.094461
523.196000 0.877937
523.420200 0.962728
523.644300 1.007737
523.868500 1.101083
524.092700 0.958423
524.316900 0.988500
524.541100 0.967546
524.765300 1.278475
524.989500 0.966541
525.213800 1.031362
525.438000 0.974672
525.662300 0.932804
525.886500 0.945339
526.110800 0.960884
526.335100 0.914794
526.559400 0.945774
526.783700 0.839070
527.008100 0.834097
527.232400 0.894427
527.456800 0.964778
527.681100 0.901816
527.905500 0.990430
528.129900 0.845051
528.354300 1.043670
528.578700 0.913951
528.803100 0.931429
529.027600 0.869787
529.252000 0.938818
529.476500 0.958975
529.700900 0.914344
529.925400 0.928144
530.149900 0.899723
530.374400 0.808910
530.598900 0.842548
530.823400 0.832910
531.048000 0.902824
531.272500 0.871418
531.497100 0.854555
531.721700 0.796405
531.946200 0.805071
532.170800 0.870724
532.395400 0.803862
532.620000 0.865934
532.844700 0.787167
533.069300 0.940853
533.294000 0.815178
533.518600 0.702377
533.743300 0.784101
533.968000 0.886074
534.192700 0.832828
534.417400 0.864681
534.642100 0.732876
534.866800 0.801971
535.091600 0.809711
535.316300 0.775090
535.541100 0.713644
535.765900 0.722916
535.990700 0.696948
536.215500 0.808469
536.440300 0.729512
536.665100 0.700911
536.889900 0.783099
537.114800 0.593806
537.339600 0.754372
537.564500 0.731636
537.789400 0.746485
538.014300 0.653873
538.239200 0.710803
538.464100 0.675002
538.689000 0.686802
538.913900 0.558576
539.138900 0.669702
539.363800 0.616492
539.588800 0.711941
539.813800 0.697827
540.038800 0.622432
540.263800 0.637425
540.488800 0.690122
540.713800 0.569510
540.938900 0.653154
541.163900 0.688036
541.389000 0.639910
541.614000 0.593120
541.839100 0.581327
542.064200 0.558955
542.289300 0.630843
542.514400 0.600038
542.739600 0.630890
542.964700 0.547930
543.189900 0.627274
543.415000 0.526038
543.640200 0.598803
543.865400 0.610200
544.090600 0.525488
544.315800 0.510820
544.541000 0.543228
544.766200 0.574155
544.991500 0.516817
545.216700 0.552768
545.442000 0.552564
545.667300 0.515380
545.892600 0.553302
546.117900 0.481930
546.343200 0.521392
546.568500 0.503373
546.793800 0.459724
547.019200 0.450268
547.244500 0.525983
547.469900 0.498083
547.695300 0.482188
547.920600 0.485413
548.146000 0.500457
548.371500 0.508170
548.596900 0.473595
548.822300 0.478915
549.047800 0.444924
549.273200 0.423848
549.498700 0.407238
549.724200 0.450786
549.949600 0.417797
550.175100 0.425297
550.400700 0.368411
550.626200 0.451663
550.851700 0.437382
551.077300 0.392595
551.302800 0.427132
551.528400 0.410997
551.754000 0.447091
551.979600 0.389178
552.205200 0.401959
552.430800 0.388580
552.656400 0.369221
552.882000 0.389520
553.107700 0.391374
553.333300 0.365923
553.559000 0.373170
553.784700 0.322149
554.010400 0.382328
554.236100 0.360673
554.461800 0.418253
554.687500 0.317131
554.913200 0.325327
555.139000 0.340482
555.364800 0.332455
555.590500 0.349496
555.816300 0.325660
556.042100 0.371873
556.267900 0.323980
556.493700 0.340782
556.719500 0.283816
556.945400 0.309152
557.171200 0.288545
557.397100 0.299970
557.623000 0.303493
557.848800 0.294461
558.074700 0.327005
558.300600 0.249369
558.526600 0.271760
558.752500 0.298270
558.978400 0.267744
559.204400 0.241101
559.430300 0.282829
559.656300 0.267693
559.882300 0.259426
560.108300 0.251406
560.334300 0.255735
560.560300 0.269429
560.786300 0.271342
561.012400 0.227355
561.238400 0.254493
561.464500 0.253249
561.690500 0.237344
561.916600 0.249544
562.142700 0.225798
562.368800 0.228814
562.594900 0.236220
562.821100 0.242380
563.047200 0.229412
563.273300 0.243104
563.499500 0.223171
563.725700 0.223273
563.951900 0.206367
564.178100 0.222548
564.404300 0.222511
564.630500 0.200105
564.856700 0.213866
565.082900 0.226519
565.309200 0.193250
565.535500 0.210440
565.761700 0.180652
565.988000 0.198464
566.214300 0.171611
566.440600 0.181654
566.666900 0.202243
566.893200 0.199299
567.119600 0.205019
567.345900 0.191391
567.572300 0.182402
567.798700 0.189557
568.025000 0.178063
568.251400 0.196429
568.477800 0.164761
568.704300 0.163374
568.930700 0.178290
569.157100 0.174666
569.383600 0.167798
569.610000 0.150836
569.836500 0.169125
570.063000 0.168078
570.289500 0.165792
570.516000 0.171315
570.742500 0.155137
570.969000 0.145632
571.195600 0.155295
571.422100 0.153997
571.648700 0.152514
571.875200 0.144770
572.101800 0.142731
572.328400 0.143493
572.555000 0.148606
572.781600 0.148393
573.008200 0.148667
573.234900 0.148725
573.461500 0.143000
573.688200 0.138958
573.914900 0.141223
574.141500 0.129646
574.368200 0.138864
574.594900 0.130142
574.821600 0.127896
575.048400 0.124114
575.275100 0.129632
575.501800 0.134337
575.728600 0.120092
575.955400 0.118024
576.182100 0.128321
576.408900 0.129854
576.635700 0.119068
576.862600 0.122532
577.089400 0.116917
577.316200 0.120417
577.543100 0.113030
577.769900 0.105189
577.996800 0.113422
578.223700 0.109258
578.450500 0.099498
578.677400 0.110569
578.904400 0.095434
579.131300 0.103462
579.358200 0.097303
579.585100 0.100833
579.812100 0.093053
580.039100 0.093781
580.266000 0.085416
580.493000 0.092931
580.720000 0.086680
580.947000 0.092670
581.174100 0.091903
581.401100 0.089478
581.628100 0.087114
581.855200 0.085292
582.082200 0.089438
582.309300 0.086974
582.536400 0.082466
582.763500 0.075489
582.990600 0.074287
583.217700 0.067571
583.444900 0.068153
583.672000 0.073280
583.899100 0.070162
584.126300 0.071694
584.353500 0.067758
584.580700 0.059609
584.807900 0.083322
585.035100 0.081488
585.262300 0.082811
585.489500 0.073985
585.716700 0.078712
585.944000 0.072702
586.171300 0.075066
586.398500 0.064819
586.625800 0.070129
586.853100 0.064058
587.080400 0.066739
587.307700 0.067074
587.535000 0.066204
587.762400 0.053159
587.989700 0.049062
588.217100 0.068420
588.444500 0.061040
588.671800 0.064083
588.899200 0.062315
589.126600 0.054370
589.354000 0.062688
589.581500 0.049890
589.808900 0.056354
590.036300 0.056876
590.263800 0.056310
590.491300 0.049020
590.718700 0.038060
590.946200 0.050294
591.173700 0.056164
591.401200 0.047674
591.628800 0.055807
591.856300 0.048752
592.083800 0.041791
592.311400 0.045167
592.538900 0.057987
592.766500 0.056954
592.994100 0.058209
593.221700 0.054535
593.449300 0.043771
593.676900 0.054071
593.904600 0.050284
594.132200 0.035222
594.359800 0.033964
594.587500 0.041985
594.815200 0.045788
595.042900 0.052045
595.270500 0.039948
595.498300 0.036838
595.726000 0.045248
595.953700 0.043558
596.181400 0.043392
596.409200 0.036726
596.636900 0.048041
596.864700 0.040085
597.092500 0.047858
597.320300 0.041759
597.548100 0.047961
597.775900 0.047758
598.003700 0.040490
598.231500 0.048758
598.459400 0.040795
598.687200 0.052422
598.915100 0.058998
599.143000 0.046602
599.370900 0.043626
599.598800 0.045729
599.826700 0.033598
600.054600 0.037076
600.282500 0.042624
600.510500 0.034379
600.738400 0.029243
600.966400 0.032562
601.194400 0.034248
601.422300 0.030227
601.650300 0.029735
601.878300 0.042544
602.106400 0.048955
602.334400 0.032919
602.562400 0.043525
602.790500 0.032409
603.018500 0.031231
603.246600 0.034146
603.474700 0.030826
603.702800 0.040501
603.930900 0.035755
604.159000 0.040606
604.387100 0.041318
604.615200 0.035089
604.843400 0.020171
605.071500 0.032402
605.299700 0.037360
605.527900 0.029182
605.756100 0.021472
605.984300 0.032985
606.212500 0.018954
606.440700 0.006365
606.668900 0.016010
606.897200 0.012973
607.125400 0.026169
607.353700 0.020483
607.581900 0.028320
607.810200 0.020538
608.038500 0.027976
608.266800 0.015975
608.495100 0.010908
608.723500 0.002398
608.951800 0.026692
609.180100 0.016081
609.408500 0.027323
609.636900 0.024661
609.865300 0.016531
610.093600 0.029358
610.322000 0.018946
610.550500 0.021389
610.778900 0.024345
611.007300 0.016757
611.235700 0.021726
611.464200 0.024381
611.692700 0.022341
611.921100 0.021603
612.149600 0.032263
612.378100 0.011169
612.606600 0.020307
612.835100 0.021281
613.063700 0.011350
613.292200 0.023657
613.520800 0.026005
613.749300 0.021979
613.977900 0.024544
614.206500 0.027556
614.435100 0.028205
614.663700 0.027517
614.892300 0.013518
615.120900 0.012188
615.349500 0.020604
615.578200 0.012887
615.806800 0.023979
616.035500 0.024003
616.264200 0.022794
616.492900 0.027457
616.721600 0.015819
616.950300 0.024640
617.179000 0.012315
617.407700 0.012355
617.636500 0.022778
617.865200 0.010729
618.094000 0.010862
618.322700 0.013514
618.551500 0.006318
618.780300 0.002251
619.009100 0.007075
619.237900 0.016578
619.466700 0.009335
619.695600 0.006775
619.924400 0.014279
620.153300 0.019725
620.382100 0.007860
620.611000 0.018596
620.839900 -0.004716
621.068800 -0.000931
621.297700 0.004197
621.526600 0.010415
621.755600 0.013448
621.984500 0.028683
622.213500 0.013976
622.442400 0.023901
622.671400 0.023169
622.900400 0.001484
623.129400 0.029402
623.358400 0.015863
623.587400 -0.000162
623.816400 -0.000675
624.045400 0.022670
624.274500 0.007769
624.503500 0.003272
624.732600 0.002377
624.961700 0.018166
625.190800 -0.000939
625.419900 -0.005500
625.649000 0.004067
625.878100 0.007180
626.107200 -0.006644
626.336400 -0.016277
626.565500 0.016726
626.794700 0.021777
627.023800 0.014713
627.253000 0.002516
627.482200 -0.001064
627.711400 -0.002677
627.940600 0.016874
628.169800 0.015548
628.399100 -0.017429
628.628300 0.011481
628.857600 -0.014984
629.086800 0.000749
629.316100 -0.003767
629.545400 0.006556
629.774700 0.017828
630.004000 0.025527
630.233300 0.021053
630.462600 0.010563
630.692000 0.023834
630.921300 0.017524
631.150700 0.011201
631.380100 0.021931
631.609400 0.016213
631.838800 0.008091
632.068200 0.022509
632.297600 0.000750
632.527100 0.010196
632.756500 -0.003057
632.985900 0.016244
633.215400 0.008608
633.444800 0.002890
633.674300 0.021370
633.903800 0.003418
634.133300 -0.011193
634.362800 0.031607
634.592300 -0.009960
634.821800 -0.003987
635.051400 0.009044
635.280900 -0.003952
635.510500 -0.035477
635.740000 -0.006525
635.969600 -0.003820
636.199200 0.000424
636.428800 -0.004227
636.658400 0.034970
636.888000 -0.004929
637.117700 -0.008088
637.347300 0.003536
637.577000 0.007466
637.806600 0.012170
638.036300 -0.002910
638.266000 0.004120
638.495700 0.016077
638.725400 0.000230
638.955100 -0.002363
639.184800 0.002316
639.414500 -0.000525
639.644300 -0.020452
639.874000 0.020809
640.103800 0.001040
640.333600 -0.020205
640.563300 -0.011573
640.793100 0.014394
641.022900 -0.023172
641.252800 0.006244
641.482600 0.029620
641.712400 -0.004948
641.942300 0.014082
642.172100 0.017250
642.402000 0.005169
642.631900 -0.025611
642.861700 0.005304
643.091600 0.031161
643.321600 0.005950
643.551500 -0.024939
643.781400 0.020910
644.011300 0.013451
644.241300 0.009641
644.471200 -0.040713
644.701200 0.024114
644.931200 0.013986
645.161200 -0.002752
645.391200 -0.020581
645.621200 0.015520
645.851200 -0.013490
646.081200 -0.041670
646.311300 0.032751
646.541300 0.024646
646.771400 -0.027787
647.001500 0.006260
647.231600 0.004666
647.461600 0.017079
647.691800 -0.010461
647.921900 -0.026904
648.152000 -0.017778
648.382100 0.001270
648.612300 -0.008757
648.842400 0.021229
649.072600 0.035112
649.302800 -0.025973
649.532900 0.013432
649.763100 0.028246
649.993300 0.008507
650.223600 0.013076
650.453800 0.001578
650.684000 -0.004391
650.914300 0.021184
651.144500 0.015910
651.374800 0.015191
651.605100 -0.014446
651.835400 0.006545
652.065700 0.002691
652.296000 -0.014016
652.526300 -0.003488
652.756600 -0.015740
652.987000 -0.020501
653.217300 0.005470
653.447700 0.033545
653.678000 -0.014043
653.908400 -0.007092
654.138800 0.001568
654.369200 0.015057
654.599600 0.025867
654.830000 0.021322
655.060500 0.019601
655.290900 -0.002771
655.521300 0.025247
655.751800 0.032867
655.982300 0.002910
656.212800 0.000974
656.443300 0.001458
656.673800 0.001232
656.904300 0.002850
657.134800 0.024975
657.365300 0.016879
657.595900 0.017022
657.826400 0.018651
658.057000 0.022763
658.287500 0.018334
658.518100 0.012445
658.748700 0.018847
658.979300 0.015595
659.209900 -0.006612
659.440600 -0.029932
659.671200 -0.045682
659.901800 -0.057178
660.132500 -0.054384
660.363200 -0.022271
660.593800 -0.022580
660.824500 -0.039937
661.055200 -0.039002
661.285900 0.027567
661.516600 0.004173
661.747400 0.013673
661.978100 0.005447
662.208800 0.025426
662.439600 0.000677
662.670400 0.022622
662.901100 0.030139
663.131900 0.012995
663.362700 0.004633
663.593500 0.004186
663.824300 0.023341
664.055200 0.023107
664.286000 0.004464
664.516800 0.010735
664.747700 -0.027011
664.978600 0.011639
665.209400 -0.013754
665.440300 0.025363
665.671200 -0.003520
665.902100 0.043042
666.133000 -0.016961
666.364000 0.019734
666.594900 0.013580
666.825900 0.017862
667.056800 -0.007095
667.287800 0.026921
667.518800 -0.035034
667.749700 -0.013812
667.980700 0.032136
668.211700 0.001269
668.442800 0.032441
668.673800 0.022176
668.904800 0.005263
669.135900 0.060770
669.366900 0.012661
669.598000 -0.041189
669.829100 -0.005297
670.060200 -0.031186
670.291300 0.014304
670.522400 -0.023436
670.753500 0.006834
670.984600 0.020386
671.215700 -0.015971
671.446900 0.073240
671.678100 0.013220
671.909200 -0.021840
672.140400 0.028268
672.371600 0.019996
672.602800 -0.009893
672.834000 0.035112
673.065200 -0.006277
673.296400 0.019301
673.527700 0.011924
673.758900 -0.028345
673.990200 0.014110
674.221400 0.011763
674.452700 0.017545
674.684000 -0.021872
674.915300 0.000015
675.146600 0.017113
675.377900 0.004382
675.609300 0.012873
675.840600 0.033096
676.071900 0.008480
676.303300 0.018601
676.534700 -0.036433
676.766100 0.015729
676.997400 0.013961
677.228800 -0.021622
677.460200 -0.010695
677.691700 0.023082
677.923100 0.006956
678.154500 -0.008077
678.386000 0.007105
678.617400 -0.005568
678.848900 0.003881
679.080400 -0.015229
679.311900 0.015331
679.543400 -0.011044
679.774900 0.029263
680.006400 0.012535
680.237900 0.011394
680.469400 0.005935
680.701000 0.014230
680.932500 0.017960
681.164100 -0.018749
681.395700 0.015244
681.627300 0.023043
681.858900 0.000344
682.090500 0.024701
682.322100 -0.000014
682.553700 -0.000151
682.785400 -0.001350
683.017000 0.002389
683.248700 0.026576
683.480300 -0.019336
683.712000 -0.025249
683.943700 -0.010015
684.175400 0.027024
684.407100 0.000346
684.638800 0.008071
684.870500 0.008151
685.102300 0.014718
685.334000 -0.007760
685.565800 0.026407
685.797500 -0.000694
686.029300 0.005469
686.261100 0.009103
686.492900 -0.002553
686.724700 0.002118
686.956500 0.014981
687.188300 0.011808
687.420200 0.011184
687.652000 0.009223
687.883800 -0.006845
688.115700 0.015165
688.347600 0.017756
688.579500 0.008876
688.811400 0.020723
689.043300 0.022319
689.275200 -0.009162
689.507100 0.008423
689.739000 0.004002
689.971000 0.004703
690.202900 -0.013076
690.434900 -0.020627
690.666900 -0.001488
690.898800 0.013170
691.130800 0.066159
691.362800 -0.012726
691.594800 -0.006578
691.826900 0.016947
692.058900 0.004620
692.290900 0.017692
692.523000 0.010094
692.755000 0.000875
692.987100 -0.007226
693.219200 0.010508
693.451300 -0.002976
693.683400 0.032278
693.915500 -0.008010
694.147600 -0.006989
694.379700 0.012576
694.611900 0.003413
694.844000 0.000224
695.076200 -0.042513
695.308300 0.015899
695.540500 0.000523
695.772700 -0.008524
696.004900 0.027634
696.237100 0.013467
696.469300 0.010887
696.701600 -0.000047
696.933800 -0.006212
697.166000 -0.015531
697.398300 0.040050
697.630600 0.019028
697.862800 0.019807
698.095100 0.033142
698.327400 0.012964
698.559700 -0.001852
698.792000 -0.011652
699.024300 -0.014644
699.256700 -0.018531
699.489000 0.019311
699.721400 -0.015182
699.953700 -0.013166
700.186100 -0.003708
700.418500 0.000586
700.650900 0.011392
700.883300 0.001902
701.115700 0.023039
701.348100 -0.000143
701.580600 0.005310
701.813000 0.005101
702.045400 -0.014052
702.277900 -0.017260
702.510400 0.012035
702.742900 -0.008563
702.975300 0.035585
703.207800 0.004981
703.440300 0.001058
703.672900 0.003285
703.905400 -0.031427
704.137900 0.017389
704.370500 -0.025778
704.603000 0.009405
704.835600 -0.005783
705.068200 -0.012582
705.300800 0.007643
705.533400 -0.016669
705.766000 0.003314
705.998600 -0.003664
706.231200 0.011271
706.463800 0.036982
706.696500 0.011911
706.929100 -0.007167
707.161800 -0.022559
707.394500 0.020230
707.627200 0.005007
707.859900 0.013584
708.092600 0.041860
708.325300 0.010361
708.558000 -0.020820
708.790700 0.006351
709.023500 0.006384
709.256200 -0.023394
709.489000 0.007400
709.721700 -0.010820
709.954500 -0.002311
710.187300 0.010567
710.420100 -0.007478
710.652900 -0.028705
710.885700 -0.016678
711.118600 -0.003772
711.351400 -0.043163
711.584200 0.002319
711.817100 0.009857
712.050000 0.027146
712.282800 -0.011091
712.515700 0.011330
712.748600 -0.010664
712.981500 -0.003467
713.214400 0.020097
713.447400 -0.017848
713.680300 -0.000709
713.913200 -0.019127
714.146200 -0.031785
714.379100 -0.029382
714.612100 -0.006286
714.845100 0.015285
715.078100 0.014223
715.311100 0.005386
715.544100 0.011651
715.777100 -0.012339
716.010200 -0.034435
716.243200 -0.035373
716.476200 0.008618
716.709300 0.013898
716.942400 0.002873
717.175400 -0.020072
717.408500 0.032867
717.641600 -0.027119
717.874700 -0.015405
718.107800 0.012953
718.341000 0.015722
718.574100 -0.027523
718.807200 0.035131
719.040400 0.030063
719.273600 0.017878
719.506700 0.013319
719.739900 0.002666
719.973100 0.000869
720.206300 -0.009967
720.439500 0.017830
720.672700 -0.010902
720.906000 -0.010940
721.139200 -0.015918
721.372500 0.003766
721.605700 -0.020097
721.839000 0.027320
722.072300 0.006003
722.305500 -0.017327
722.538800 0.032220
722.772100 0.006221
723.005500 0.002961
723.238800 0.007848
723.472100 0.010979
723.705500 -0.001260
723.938800 -0.040482
724.172200 0.008476
724.405600 -0.001121
724.638900 0.022342
724.872300 0.039772
725.105700 0.010799
725.339100 0.023110
725.572600 0.032140
725.806000 -0.030820
726.039400 0.010942
726.272900 0.019335
726.506300 -0.002160
726.739800 -0.012833
726.973300 0.033287
727.206800 0.015096
727.440300 0.029212
727.673800 -0.000709
727.907300 0.016557
728.140800 -0.021808
728.374300 -0.022494
728.607900 -0.005248
728.841400 -0.004769
729.075000 -0.002543
729.308600 -0.020985
729.542100 0.009495
729.775700 0.015966
730.009300 -0.007737
730.242900 0.005923
730.476600 0.039566
730.710200 0.016694
730.943800 0.009428
731.177500 0.002750
731.411100 0.004723
731.644800 0.025771
731.878500 -0.011881
732.112200 0.024433
732.345800 -0.004468
732.579500 0.015322
732.813300 0.013229
733.047000 -0.004106
733.280700 0.029818
733.514500 -0.004672
733.748200 0.004424
733.982000 0.017222
734.215700 -0.004070
734.449500 -0.004700
734.683300 0.021136
734.917100 0.006112
735.150900 0.010737
735.384700 0.015229
735.618500 -0.011839
735.852400 0.023880
736.086200 0.009507
736.320100 -0.010157
736.553900 0.032232
736.787800 -0.000018
737.021700 0.011583
737.255600 0.008906
737.489500 -0.005044
737.723400 -0.007253
737.957300 -0.009336
738.191200 0.000253
738.425200 0.006913
738.659100 -0.000403
738.893100 -0.026436
739.127100 -0.013581
739.361000 0.012589
739.595000 0.024337
739.829000 -0.023213
740.063000 -0.020618
740.297000 0.008319
740.531000 -0.017960
740.765100 -0.019938
740.999100 -0.007561
741.233200 0.002988
741.467200 0.006603
741.701300 -0.028274
741.935400 -0.003478
742.169500 -0.023422
742.403600 -0.015781
742.637700 -0.008038
742.871800 -0.002314
743.105900 0.022722
743.340000 0.002761
743.574200 0.013876
743.808300 -0.025041
744.042500 -0.008414
744.276700 -0.001987
744.510800 -0.018667
744.745000 -0.002452
744.979200 0.012702
745.213400 0.009444
745.447700 -0.023475
745.681900 -0.001619
745.916100 0.031947
746.150400 0.018571
746.384600 0.019542
746.618900 -0.041251
746.853200 -0.000122
747.087400 -0.017457
747.321700 -0.023441
747.556000 -0.028066
747.790300 -0.003430
748.024700 -0.023459
748.259000 -0.023539
748.493300 0.001274
748.727700 -0.015477
748.962000 0.000316
749.196400 -0.033027
749.430800 0.002984
749.665200 -0.022829
749.899500 0.026792
750.133900 -0.016432
750.368400 -0.000642
750.602800 0.007146
750.837200 -0.005665
751.071700 0.025728
751.306100 0.007208
751.540600 0.000399
751.775000 0.009959
752.009500 -0.014188
752.244000 -0.004098
752.478500 -0.007965
752.713000 0.005392
752.947500 0.004496
753.182000 0.014012
753.416600 -0.004808
753.651100 0.004412
753.885600 0.016484
754.120200 0.008481
754.354800 -0.009057
754.589400 0.007193
754.823900 -0.021030
755.058500 0.000478
755.293100 -0.009371
755.527800 0.013285
755.762400 -0.003975
755.997000 0.010568
756.231700 -0.000103
756.466300 0.011301
756.701000 0.005283
756.935600 0.003084
757.170300 0.018783
757.405000 0.020245
757.639700 0.012664
757.874400 0.026125
758.109100 0.007980
758.343800 0.018798
758.578600 0.011079
758.813300 0.027577
759.048100 0.003722
759.282800 0.010597
759.517600 -0.003252
759.752400 0.015570
759.987200 0.017916
760.222000 0.008437
760.456800 0.001624
760.691600 0.024125
760.926400 0.001752
761.161300 0.018086
761.396100 -0.011076
761.631000 0.004847
761.865800 0.034209
762.100700 -0.000744
762.335600 -0.006288
762.570500 0.009411
762.805400 -0.017207
763.040300 -0.022408
763.275200 -0.002302
763.510100 0.004865
763.745000 -0.003836
763.980000 0.013629
764.214900 -0.015213
764.449900 0.019566
764.684900 0.009390
764.919800 -0.015275
765.154800 0.000325
765.389800 0.009174
765.624800 0.040528
765.859900 -0.012112
766.094900 0.001074
766.329900 0.005308
766.565000 0.008193
766.800000 -0.021848
767.035100 -0.015630
767.270100 -0.010156
767.505200 0.007984
767.740300 -0.012891
767.975400 0.006154
768.210500 -0.026377
768.445600 0.011762
768.680800 -0.008643
768.915900 0.023779
769.151000 0.000541
769.386200 -0.003166
769.621400 -0.001891
769.856500 0.018862
770.091700 0.018369
770.326900 -0.026373
770.562100 0.008353
770.797300 0.013106
771.032500 -0.010985
771.267700 -0.012081
771.503000 -0.016645
771.738200 0.016536
771.973500 -0.004989
772.208700 0.001469
772.444000 0.014716
772.679300 -0.009170
772.914600 0.012663
773.149900 -0.011820
773.385200 0.002315
773.620500 -0.022435
773.855800 0.006370
774.091100 0.013317
774.326500 -0.002594
774.561800 -0.017879
774.797200 0.027624
775.032600 0.029186
775.267900 -0.014653
775.503300 0.005642
775.738700 0.000979
775.974100 0.005003
776.209500 -0.008915
776.445000 0.003124
776.680400 0.009310
776.915800 0.000254
777.151300 -0.005760
777.386800 -0.020192
777.622200 0.022176
777.857700 -0.027343
778.093200 0.000085
778.328700 -0.007736
778.564200 -0.012157
778.799700 0.017472
779.035200 -0.005013
779.270700 -0.022761
779.506300 -0.010640
779.741800 -0.014562
779.977400 -0.018162
780.213000 0.009817
780.448500 -0.009434
780.684100 0.008856
780.919700 0.009347
781.155300 -0.004752
781.390900 0.013607
781.626500 0.009934
781.862200 0.026265
782.097800 -0.000167
782.333500 -0.015680
782.569100 -0.004899
782.804800 -0.024418
783.040500 0.006330
783.276100 -0.020659
783.511800 0.015506
783.747500 0.011199
783.983200 -0.010791
784.219000 0.016757
784.454700 -0.002802
784.690400 0.036157
784.926200 0.028365
785.161900 0.007529
785.397700 -0.001856
785.633500 -0.056409
785.869200 -0.028903
786.105000 -0.016443
786.340800 0.005610
786.576600 0.007261
786.812400 -0.021380
787.048300 0.000704
787.284100 -0.013983
787.519900 0.022731
787.755800 0.002411
787.991700 -0.000604
788.227500 0.021079
788.463400 -0.020164
788.699300 0.004139
788.935200 0.010443
789.171100 0.008587
789.407000 0.010423
789.642900 0.019222
789.878900 0.009192
790.114800 -0.000128
790.350700 -0.012770
790.586700 0.004955
790.822700 -0.000839
791.058600 -0.018291
791.294600 0.013564
791.530600 -0.013957
791.766600 -0.013340
792.002600 0.024487
792.238700 -0.010578
792.474700 0.035813
792.710700 0.033663
792.946800 -0.055748
793.182800 -0.050682
793.418900 -0.019686
793.655000 0.010048
793.891000 0.014075
794.127100 0.001589
794.363200 0.027204
794.599300 -0.002465
794.835500 0.000724
795.071600 0.014475
795.307700 0.051315
795.543900 0.015350
795.780000 0.013183
796.016200 -0.006534
796.252300 0.027711
796.488500 -0.008662
796.724700 0.032847
796.960900 0.003853
797.197100 0.042383
797.433300 -0.023916
797.669500 0.002827
797.905800 0.058015
798.142000 -0.003365
798.378300 -0.007309
798.614500 -0.002907
798.850800 -0.001450
799.087100 0.009531
799.323300 -0.018645
799.559600 -0.018403
799.795900 0.002836
800.032200 0.003322
800.268600 -0.003518
800.504900 0.006766
800.741200 -0.012135
800.977600 0.028711
801.213900 -0.011577
801.450300 0.022151
801.686700 0.033381
801.923000 -0.011403
802.159400 0.040573
802.395800 0.022402
802.632200 0.036852
802.868600 -0.051951
803.105100 0.021071
803.341500 -0.061638
803.577900 -0.009471
803.814400 -0.006133
804.050800 -0.044307
804.287300 -0.012553
804.523800 -0.039461
804.760300 0.049394
804.996800 -0.016033
805.233300 -0.000781
805.469800 0.007225
805.706300 -0.023010
805.942800 -0.004681
806.179400 -0.039834
806.415900 -0.003679
806.652500 0.027617
806.889000 0.026544
807.125600 0.025174
807.362200 -0.012519
807.598800 -0.019401
807.835400 -0.008811
808.072000 0.011827
808.308600 0.027767
808.545200 0.005046
808.781800 -0.020626
809.018500 0.031018
809.255100 -0.024236
809.491800 -0.009954
809.728400 -0.022381
809.965100 -0.032132
810.201800 -0.003892
810.438500 -0.053093
810.675200 -0.052998
810.911900 0.006462
811.148600 0.009654
811.385300 -0.016577
811.622100 0.021533
811.858800 -0.038149
812.095600 -0.055168
812.332300 0.023982
812.569100 -0.004823
812.805900 -0.023503
813.042700 0.005464
813.279500 -0.014717
813.516300 -0.056943
813.753100 0.014396
813.989900 0.012760
814.226700 0.023789
814.463600 0.002606
814.700400 0.012573
814.937300 -0.024047
815.174200 -0.013793
815.411000 -0.015552
815.647900 -0.023727
815.884800 -0.065653
816.121700 0.038588
816.358600 -0.026515
816.595500 -0.003827
816.832400 -0.023407
817.069400 -0.018360
817.306300 -0.009440
817.543300 -0.020950
817.780200 -0.044407
818.017200 -0.004083
818.254200 0.007669
818.491200 -0.045036
818.728200 0.022070
818.965200 -0.015402
819.202200 0.021719
819.439200 0.030774
819.676200 -0.043323
819.913300 -0.029284
820.150300 -0.015219
820.387400 0.061274
820.624400 0.009110
820.861500 -0.022004
821.098600 -0.036101
821.335700 0.055452
821.572700 -0.032762
821.809900 -0.018765
822.047000 0.030121
822.284100 -0.040262
822.521200 -0.007681
822.758400 0.034009
822.995500 0.080953
823.232700 0.038514
823.469800 0.031523
823.707000 -0.055601
823.944200 0.012751
824.181400 0.067029
824.418600 -0.023518
824.655800 -0.055168
824.893000 -0.001819
825.130200 -0.001026
825.367500 -0.014011
825.604700 -0.006815
825.841900 -0.064718
826.079200 0.014366
826.316500 0.020461
826.553700 0.028122
826.791000 0.050865
827.028300 -0.026900
827.265600 -0.003611
827.502900 0.038270
827.740200 0.073185
827.977600 -0.023673
828.214900 0.020739
828.452200 0.052190
828.689600 -0.001336
828.927000 0.040630
829.164300 -0.036709
829.401700 -0.022480
829.639100 0.007173
829.876500 -0.028451
830.113900 0.031778
830.351300 0.037594
830.588700 0.019508
830.826100 0.003936
831.063600 -0.003308
831.301000 0.005641
831.538500 -0.023362
831.775900 -0.005367
832.013400 -0.026422
832.250900 0.054187
832.488400 0.040393
832.725900 -0.015794
832.963400 0.014825
833.200900 0.019671
833.438400 -0.048057
833.675900 0.100869
833.913500 0.127240
834.151000 0.008675
834.388600 0.031750
834.626100 -0.022148
834.863700 0.064501
835.101300 -0.017578
835.338900 0.033725
835.576500 0.025023
835.814100 -0.067559
836.051700 0.022565
836.289300 0.034270
836.526900 -0.032141
836.764600 0.031155
837.002200 0.014456
837.239900 0.088262
837.477500 0.034705
837.715200 -0.198479
837.952900 -0.046686
838.190600 0.006892
838.428300 0.053932
838.666000 0.012692
838.903700 -0.066082
839.141400 -0.025365
839.379100 -0.088010
839.616900 -0.066647
839.854600 -0.075116
840.092400 0.033902
840.330200 -0.000796
840.567900 0.064625
840.805700 0.002556
841.043500 0.027447
841.281300 0.014990
841.519100 -0.030816
841.756900 0.035996
841.994700 -0.034054
842.232600 0.014422
842.470400 0.099017
842.708200 -0.166481
842.946100 -0.034981
843.184000 -0.098522
843.421800 -0.006774
843.659700 0.049516
843.897600 -0.063612
844.135500 0.014514
844.373400 -0.045567
844.611300 0.040845
844.849200 -0.056288
845.087200 0.056089
845.325100 0.009834
845.563100 0.063680
845.801000 0.020634
846.039000 0.110182
846.277000 -0.107366
846.514900 -0.090973
846.752900 -0.153385
846.990900 -0.055781
847.228900 -0.097593
847.466900 0.142341
847.705000 -0.003613
847.943000 -0.055088
848.181000 0.015430
848.419100 0.018294
848.657100 -0.054098
848.895200 -0.059529
849.133300 0.153090
849.371300 0.008128
849.609400 -0.005487
849.847500 0.056314
850.085600 -0.039286
850.323700 -0.011485
850.561900 -0.081249
850.800000 0.167317
851.038100 0.019900
851.276300 -0.098471
851.514400 -0.130114
851.752600 0.034924
851.990800 -0.043180
852.228900 -0.054428
852.467100 -0.056029
852.705300 -0.006075
852.943500 -0.030587
853.181700 0.014925
853.420000 0.031584
853.658200 0.038085
853.896400 0.063686
854.134700 0.004000
854.372900 0.014192
854.611200 0.030564
854.849500 0.003803
855.087700 0.042902
855.326000 0.074181
855.564300 0.040422
855.802600 0.026673
856.040900 0.071259
856.279200 0.059540
856.517600 0.017623
856.755900 -0.038688
856.994200 0.004146
857.232600 0.010256
857.471000 -0.005674
857.709300 0.000164
857.947700 -0.024467
858.186100 0.058790
858.424500 -0.063283
858.662900 0.041645
858.901300 -0.025817
859.139700 -0.015528
859.378100 -0.071870
859.616600 -0.005452
859.855000 -0.011211
860.093500 0.044117
860.331900 -0.036288
860.570400 -0.017763
860.808900 0.011916
861.047300 0.058819
861.285800 -0.046558
861.524300 0.080724
861.762800 0.086633
862.001300 0.065334
862.239900 -0.010431
862.478400 -0.000223
862.716900 -0.003126
862.955500 -0.052412
863.194000 -0.099753
863.432600 0.008158
863.671200 -0.005251
863.909800 -0.037955
864.148300 0.041295
864.386900 -0.038107
864.625500 0.055581
864.864200 0.021105
865.102800 -0.041777
865.341400 -0.047427
865.580000 -0.078110
865.818700 -0.046687
866.057300 0.021881
866.296000 -0.014862
866.534700 -0.085927
866.773300 0.309109
867.012000 -0.028455
867.250700 0.020385
867.489400 -0.023021
867.728100 -0.104790
867.966900 0.119460
868.205600 -0.034846
868.444300 0.015219
868.683100 -0.046946
868.921800 0.075944
869.160600 -0.021786
869.399300 0.008143
869.638100 0.041374
869.876900 -0.001158
870.115700 0.025248
870.354500 -0.046914
870.593300 0.131670
870.832100 0.077059
871.070900 0.069450
871.309700 -0.077777
871.548600 0.150875
871.787400 0.006225
872.026300 -0.000193
872.265100 -0.118653
872.504000 0.054881
872.742900 -0.060186
872.981800 -0.054556
873.220700 0.054209
873.459600 -0.044053
873.698500 0.087770
873.937400 0.025950
874.176300 -0.097525
874.415300 0.012859
874.654200 -0.011068
874.893200 -0.036555
875.132100 -0.128981
875.371100 0.035349
875.610100 -0.059970
875.849100 0.030373
876.088000 0.003554
876.327000 0.160617
876.566100 -0.077232
876.805100 0.060764
877.044100 -0.160717
877.283100 -0.113936
877.522200 -0.141804
877.761200 0.008781
878.000300 0.001097
878.239300 0.014967
878.478400 0.033117
878.717500 0.022355
878.956600 0.006511
879.195700 0.129491
879.434800 -0.049253
879.673900 -0.069903
879.913000 -0.031187
880.152100 -0.013267
880.391300 0.096322
880.630400 0.085801
880.869600 -0.050236
881.108700 -0.024155
881.347900 0.047140
881.587100 0.089407
881.826200 -0.022000
882.065400 0.033265
882.304600 -0.047176
882.543800 0.015579
882.783100 0.048840
883.022300 -0.020057
883.261500 -0.097657
883.500700 -0.045914
883.740000 -0.018236
883.979200 -0.002160
884.218500 0.010900
884.457800 -0.016175
884.697100 -0.017603
884.936300 0.038883
885.175600 0.104753
885.414900 -0.066393
885.654200 0.010470
885.893600 -0.067520
886.132900 0.011327
886.372200 -0.035409
886.611600 -0.110455
886.850900 0.067944
887.090300 0.120385
887.329600 0.113369
887.569000 -0.117047
887.808400 -0.100851
888.047800 -0.070634
888.287200 -0.077064
888.526600 0.029527
888.766000 -0.155943
889.005400 0.083551
889.244800 -0.054353
889.484300 -0.114661
889.723700 0.106479
889.963200 -0.041056
890.202600 0.016410
890.442100 -0.067730
890.681600 0.023562
890.921100 0.131661
891.160600 0.048291
891.400100 0.001617
891.639600 0.099441
891.879100 -0.069747
892.118600 0.037662
892.358100 -0.135665
892.597700 0.073506
892.837200 0.166719
893.076800 -0.031098
893.316300 0.239584
893.555900 -0.034917
893.795500 0.097497
894.035100 -0.005192
894.274700 -0.019196
894.514300 -0.006698
894.753900 -0.139362
894.993500 0.059149
895.233100 -0.151516
895.472700 -0.111631
895.712400 -0.034012
895.952000 0.091892
896.191700 0.016783
896.431400 -0.017729
896.671000 0.162028
896.910700 -0.039364
897.150400 0.115453
897.390100 -0.082467
897.629800 -0.071228
897.869500 -0.120769
898.109200 0.041410
898.348900 0.160477
898.588700 -0.048140
898.828400 0.025920
899.068200 -0.078397
899.307900 0.121056
899.547700 0.198301
899.787500 0.058923
900.027200 -0.161776
900.267000 0.006172
900.506800 0.169404
900.746600 0.072260
900.986400 0.023108
901.226300 0.026538
901.466100 0.005530
901.705900 0.150970
901.945800 0.005779
902.185600 0.041712
902.425500 -0.056668
902.665400 -0.039564
902.905200 -0.057787
903.145100 0.104676
903.385000 0.132291
903.624900 -0.010719
903.864800 0.003037
904.104700 0.024158
904.344600 0.023845
904.584600 -0.058238
904.824500 -0.151976
905.064400 -0.070386
905.304400 -0.055162
905.544400 -0.077889
905.784300 0.146736
906.024300 0.058761
906.264300 0.050021
906.504300 0.025573
906.744300 0.092974
906.984300 -0.016560
907.224300 0.170846
907.464300 0.134002
907.704300 -0.050447
907.944400 0.020179
908.184400 -0.209256
908.424500 0.059044
908.664500 -0.130264
908.904600 -0.059260
909.144700 -0.048640
909.384700 0.016296
909.624800 -0.128614
909.864900 -0.053611
910.105000 0.036310
910.345200 -0.304366
910.585300 0.062431
910.825400 0.029542
911.065500 0.026454
911.305700 0.092664
911.545800 0.077500
911.786000 0.088838
912.026200 -0.094967
912.266300 0.112415
912.506500 -0.029129
912.746700 -0.015423
912.986900 0.075811
913.227100 -0.062266
913.467300 0.058378
913.707500 -0.223137
913.947800 -0.026607
914.188000 0.085095
914.428300 -0.016723
914.668500 -0.062550
914.908800 -0.101990
915.149000 -0.017402
915.389300 0.142896
915.629600 0.084599
915.869900 0.248861
916.110200 -0.170793
916.350500 -0.019651
916.590800 -0.029166
916.831100 0.044443
917.071400 -0.028840
917.311800 -0.181501
917.552100 -0.078871
917.792500 -0.050370
918.032800 -0.102370
918.273200 0.133057
918.513600 -0.060336
918.753900 0.060621
918.994300 0.032157
919.234700 -0.092778
919.475100 -0.098674
919.715500 0.046031
919.956000 0.216327
920.196400 0.017609
920.436800 0.032298
920.677300 -0.001460
920.917700 -0.059733
921.158200 -0.088446
921.398600 0.313984
921.639100 0.274633
921.879600 -0.247330
922.120100 0.055498
922.360600 0.072521
922.601100 0.065384
922.841600 -0.035742
923.082100 0.117921
923.322600 -0.009923
923.563100 -0.246698
923.803700 0.087908
924.044200 0.040752
924.284800 -0.012773
924.525400 -0.008793
924.765900 0.131415
925.006500 -0.049778
925.247100 0.048659
925.487700 0.452016
925.728300 0.133002
925.968900 -0.065157
926.209500 0.077405
926.450100 -0.113844
926.690800 0.162470
926.931400 0.208184
927.172000 -0.094596
927.412700 -0.102827
927.653300 0.038602
927.894000 0.033322
928.134700 0.015419
928.375400 -0.263610
928.616100 0.094153
928.856800 -0.104089
929.097500 -0.193453
929.338200 0.140484
929.578900 0.030633
929.819600 0.030079
930.060400 0.075950
930.301100 0.147664
930.541900 -0.091246
930.782600 0.128811
931.023400 0.126205
931.264200 0.348322
931.504900 0.114681
931.745700 0.054358
931.986500 0.032754
932.227300 0.076013
932.468100 0.037489
932.708900 0.129295
932.949800 0.036875
933.190600 0.047007
933.431400 -0.161221
933.672300 -0.200624
933.913100 0.412073
934.154000 0.026599
934.394900 -0.042088
934.635800 -0.132912
934.876600 -0.242086
935.117500 0.073332
935.358400 0.209542
935.599300 0.073066
935.840300 -0.098134
936.081200 0.116807
936.322100 -0.276818
936.563000 0.253633
936.804000 -0.006845
937.044900 -0.133831
937.285900 -0.069495
937.526900 -0.107210
937.767800 0.292094
938.008800 0.231116
938.249800 0.077873
938.490800 0.636132
938.731800 0.078666
938.972800 0.332729
939.213800 -0.094984
939.454900 0.084609
939.695900 -0.077830
939.936900 0.553575
940.178000 0.348063
940.419000 -0.111872
940.660100 0.023954
940.901200 0.468871
941.142200 0.222732
941.383300 3.372728
941.624400 0.673722
941.865500 0.130038
942.106600 0.330428
942.347700 -0.045302
942.588900 -0.059536
942.830000 -0.006160
943.071100 -0.098543
943.312300 0.175578
943.553400 0.718086
943.794600 -0.009364
944.035700 3.237041
944.276900 -0.172501
944.518100 0.069359
944.759300 0.349065
945.000500 0.100642
945.241700 0.123053
945.482900 3.272770
945.724100 0.601330
945.965300 -0.027048
946.206600 -0.143809
946.447800 -0.266471
946.689100 0.123698
946.930300 -0.540743
947.171600 -0.139503
947.412800 3.171434
947.654100 0.477121
947.895400 3.272538
948.136700 0.194253
948.378000 0.423980
948.619300 0.259223
948.860600 3.265290
949.101900 0.055945
949.343300 0.030843
949.584600 0.183477
949.825900 -0.203095
950.067300 0.717777
950.308600 2.975891
950.550000 0.224461
950.791400 -0.240247
951.032700 -0.392551
951.274100 -0.188011
951.515500 0.118494
951.756900 -0.077583
951.998300 0.055809
952.239800 -0.020363
952.481200 -0.170254
952.722600 -0.201357
952.964000 0.126475
953.205500 -0.144238
953.446900 -0.181253
953.688400 0.187696
953.929900 0.103912
954.171300 -1.147703
954.412800 -0.146976
954.654300 0.055201
954.895800 -0.231935
955.137300 -0.372348
955.378800 -0.132837
955.620300 0.153016
955.861800 0.128183
956.103400 -0.146364
956.344900 0.133483
956.586500 -0.166538
956.828000 0.161528
957.069600 0.458545
957.311100 -0.556950
957.552700 -0.028924
957.794300 -0.048213
958.035900 -0.383390
958.277500 -0.625677
958.519100 3.125806
958.760700 -0.278358
959.002300 -0.239116
959.243900 0.238944
959.485600 1.246457
959.727200 3.149219
959.968800 -0.315710
960.210500 2.960946
960.452200 0.081065
960.693800 -0.275991
960.935500 -2.652246
961.177200 0.139918
961.418900 2.653213
961.660600 -0.069023
961.902300 0.132066
962.144000 0.338567
962.385700 2.791691
962.627400 0.268940
962.869200 -0.306384
963.110900 -0.191178
963.352700 -0.139897
963.594400 0.198340
963.836200 0.414105
964.077900 0.015914
964.319700 0.698660
964.561500 3.252853
964.803300 -0.025698
965.045100 0.062299
965.286900 -0.115183
965.528700 -0.242578
965.770500 2.935507
966.012300 -0.091185
966.254200 0.746368
966.496000 -0.402998
966.737900 -0.027438
966.979700 -0.107026
967.221600 0.014240
967.463400 -0.055281
967.705300 1.198046
967.947200 -0.439115
968.189100 -0.249123
968.431000 -0.056890
968.672900 0.323933
968.914800 0.239910
969.156700 2.745075
969.398700 0.169799
969.640600 -0.683906
969.882500 0.370877
970.124500 -0.395159
970.366400 0.466005
970.608400 -0.146240
970.850400 -0.529432
971.092300 2.890421
971.334300 0.359911
971.576300 -0.709133
971.818300 0.420841
972.060300 -0.126252
972.302300 0.240854
972.544300 0.035805
972.786400 0.107290
973.028400 0.347688
973.270400 0.534728
973.512500 0.603860
973.754500 -0.061885
973.996600 -0.368102
974.238700 1.044222
974.480700 -0.163335
974.722800 0.012770
974.964900 2.859739
975.207000 0.425088
975.449100 -0.481087
975.691200 -0.071710
975.933300 1.014849
976.175500 -2.790285
976.417600 0.515858
976.659700 1.128543
976.901900 0.246356
977.144000 -0.145889
977.386200 2.745075
977.628300 0.402396
977.870500 -0.231634
978.112700 2.776701
978.354900 -0.349507
978.597100 -0.182773
978.839300 0.148020
979.081500 -0.174088
979.323700 -3.089905
979.565900 -0.126584
979.808200 0.047280
980.050400 0.159644
980.292600 0.378172
980.534900 3.012837
980.777100 -0.187388
981.019400 -0.393001
981.261700 3.201124
981.504000 0.350194
981.746200 -0.529650
981.988500 0.141686
982.230800 0.196975
982.473100 0.003358
982.715500 0.322587
982.957800 -0.365607
983.200100 2.990339
983.442400 -0.692752
983.684800 2.799341
983.927100 -0.248513
984.169500 -0.197843
984.411800 0.030974
984.654200 -0.416825
984.896600 0.391704
985.139000 1.230449
985.381400 0.854421
985.623800 3.218010
985.866200 0.477497
986.108600 -2.743510
986.351000 0.194483
986.593400 2.820201
986.835800 0.202684
987.078300 -0.512924
987.320700 -0.029830
987.563200 2.700704
987.805600 2.414973
988.048100 3.189209
988.290600 2.760422
988.533100 0.000000
988.775600 -0.274815
989.018000 0.371768
989.260500 0.395278
989.503100 -1.954243
989.745600 -0.934954
989.988100 -3.312389
990.230600 -0.147167
990.473200 0.145222
990.715700 2.558709
990.958200 2.523746
991.200800 -0.337352
991.443400 -1.954243
991.685900 -0.240247
991.928500 0.000000
992.171100 -0.687975
992.413700 0.564705
992.656300 0.127440
992.898900 -0.167940
993.141500 -0.215789
993.384100 0.543036
993.626700 0.719023
993.869400 0.252567
994.112000 -0.133838
994.354700 1.211002
994.597300 3.030195
994.840000 0.000000
995.082600 0.189972
995.325300 -0.177645
995.568000 0.276269
995.810700 -0.663180
996.053400 0.280827
996.296100 2.827369
996.538800 -0.264955
996.781500 3.171141
997.024200 -0.783929
997.267000 2.791691
997.509700 0.340337
997.752400 2.768638
997.995200 3.051153
998.237900 -0.117976
998.480700 -0.176278
998.723500 -2.290035
998.966200 -0.238901
999.209000 0.000000
999.451800 -0.202935
999.694600 0.130293
999.937400 -0.016390
1000.180200 0.029622
1000.423000 -0.093666
1000.665900 0.001075
1000.908700 2.396199
1001.151500 -0.339157
1001.394400 0.018348
1001.637200 0.303211
1001.880100 -1.830375
1002.123000 0.426806
1002.365800 -0.434344
1002.608700 2.357935
1002.851600 0.578830
1003.094500 0.551066
1003.337400 0.032793
1003.580300 -2.561101
1003.823200 -0.328536
1004.066100 0.112814
1004.309100 -0.419603
1004.552000 -0.198226
1004.794900 -0.256914
1005.037900 3.129368
1005.280800 -0.298307
1005.523800 0.337217
1005.766700 0.305337
1006.009700 -0.111389
1006.252700 0.000000
1006.495700 2.812913
1006.738700 -2.819544
1006.981700 0.600792
1007.224700 0.698970
1007.467700 -1.050205
1007.710700 -0.349811
1007.953800 0.262467
1008.196800 -0.213968
1008.439800 0.564918
1008.682900 -0.237454
1008.925900 0.589748
1009.169000 2.884229
1009.412100 -3.025715
1009.655100 2.008600
1009.898200 0.189672
1010.141300 -0.293758
1010.384400 -0.091650
1010.627500 -0.269316
1010.870600 1.119921
1011.113700 -0.108709
1011.356800 -0.269704
1011.600000 -1.459702
1011.843100 -0.412500
1012.086300 -2.535294
1012.329400 0.061074
1012.572600 0.000000
1012.815700 -0.111519
1013.058900 -2.334454
1013.302100 -0.197233
1013.545200 0.010581
1013.788400 0.818192
1014.031600 -2.184691
1014.274800 -0.241627
1014.518000 3.161967
1014.761300 3.177536
1015.004500 -2.759668
1015.247700 0.056855
1015.490900 -2.871573
1015.734200 3.239800
1015.977400 2.450249
1016.220700 -2.672098
1016.464000 2.853090
1016.707200 -0.681241
1016.950500 2.378398
1017.193800 0.400093
1017.437100 0.115135
1017.680400 0.113854
1017.923700 0.601143
1018.167000 0.372586
1018.410300 -0.668936
1018.653600 -0.176091
1018.896900 3.021603
1019.140300 0.123321
1019.383600 -0.403941
1019.627000 -0.083376
1019.870300 0.344809
1020.113700 3.183555
1020.357100 0.529865
1020.600400 -0.163335
1020.843800 3.090258
1021.087200 0.751836
1021.330600 -2.374748
1021.574000 -0.040822
1021.817400 0.000000
1022.060800 -2.846337
1022.304200 -2.819544
1022.547700 1.487030
1022.791100 -0.685626
1023.034500 0.365755
