# Wavelength	Absorbance
197.780200 -0.184436
197.984200 -0.199940
198.188200 0.241292
198.392200 -0.411277
198.596300 -0.206882
198.800300 -0.676254
199.004400 0.092480
199.208500 2.866287
199.412600 -0.571993
199.616800 -0.057437
199.820900 2.465383
200.025100 -0.034806
200.229200 -0.643995
200.433400 -0.054358
200.637600 0.745075
200.841800 2.902003
201.046100 3.008600
201.250300 0.680304
201.454600 0.381414
201.658900 0.588755
201.863100 -0.154154
202.067400 -0.431866
202.271800 1.010986
202.476100 2.896526
202.680500 -0.227244
202.884800 2.980458
203.089200 0.353387
203.293600 2.745075
203.498000 -0.344395
203.702400 -0.019566
203.906900 -1.053374
204.111300 -3.003461
204.315800 0.645568
204.520300 0.345287
204.724800 0.094951
204.929300 -0.588778
205.133800 -0.006943
205.338400 0.007957
205.543000 0.318954
205.747500 2.682145
205.952100 -0.423418
206.156700 0.133170
206.361400 -3.198107
206.566000 2.187521
206.770600 0.006535
206.975300 -0.897822
207.180000 -2.386372
207.384700 -0.483065
207.589400 -3.336260
207.794100 2.480007
207.998900 -0.129834
208.203600 -0.057227
208.408400 0.105708
208.613200 2.820201
208.818000 -0.582912
209.022800 2.414973
209.227600 0.271198
209.432500 0.246136
209.637300 2.752816
209.842200 -0.931618
210.047100 -0.186326
210.252000 2.053078
210.456900 3.086360
210.661800 0.972593
210.866800 0.583690
211.071800 0.278412
211.276700 -0.162828
211.481700 -0.326561
211.686700 0.734830
211.891800 -0.834492
212.096800 -0.145756
212.301800 0.025317
212.506900 -0.037699
212.712000 -0.127750
212.917100 -0.197559
213.122200 2.866287
213.327300 1.138107
213.532500 -3.226084
213.737600 0.902641
213.942800 1.447158
214.148000 0.275418
214.353200 -2.734800
214.558400 -0.038149
214.763600 0.109954
214.968900 -0.307322
215.174100 0.092072
215.379400 -2.620136
215.584700 -0.327104
215.790000 -0.199028
215.995300 0.102531
216.200700 -0.301708
216.406000 0.149954
216.611400 2.587711
216.816800 -0.229173
217.022200 -0.291577
217.227600 0.871516
217.433000 0.384270
217.638400 3.047275
217.843900 -0.362254
218.049400 -3.114944
218.254800 0.189077
218.460300 -0.069857
218.665900 1.034386
218.871400 0.213328
219.076900 0.066577
219.282500 2.960946
219.488100 3.047275
219.693600 0.049104
219.899200 0.302439
220.104900 0.061061
220.310500 -0.927641
220.516100 -2.984977
220.721800 -0.005791
220.927500 0.181284
221.133200 -0.370535
221.338900 -0.412496
221.544600 0.129285
221.750300 0.238579
221.956100 0.551386
222.161800 2.338456
222.367600 -0.290565
222.573400 -0.196025
222.779200 -2.574031
222.985000 -3.257679
223.190900 0.177973
223.396700 2.621176
223.602600 -0.677598
223.808500 -0.449712
224.014400 2.853698
224.220300 -0.274008
224.426200 -0.158616
224.632200 -0.434126
224.838100 0.460669
225.044100 -0.098836
225.250100 -0.611439
225.456100 2.653213
225.662100 2.632457
225.868100 -1.160025
226.074200 -0.482487
226.280200 -2.620136
226.486300 -0.356893
226.692400 0.000000
226.898500 1.203776
227.104600 -0.618287
227.310700 -0.055974
227.516900 2.833784
227.723000 0.192278
227.929200 3.252853
228.135400 0.036594
228.341600 2.622214
228.547800 0.559223
228.754100 0.114029
228.960300 2.245513
229.166600 -3.093422
229.372900 2.907949
229.579100 -0.329368
229.785500 0.023793
229.991800 -2.193125
230.198100 -0.252353
230.404500 -1.185123
230.610800 0.921106
230.817200 -3.070776
231.023600 -0.164192
231.230000 2.683047
231.436400 0.003377
231.642900 -0.049396
231.849300 -0.220725
232.055800 2.008600
232.262300 1.012951
232.468800 1.959041
232.675300 -0.603998
232.881800 0.025852
233.088400 0.223937
233.294900 0.786800
233.501500 2.902003
233.708100 -2.597695
233.914700 -0.492885
234.121300 -2.214844
234.327900 -0.584082
234.534600 0.189385
234.741300 0.219657
234.947900 0.341945
235.154600 1.406199
235.361300 0.310299
235.568000 0.529255
235.774800 -0.367032
235.981500 -0.118948
236.188300 -2.877947
236.395100 -0.377011
236.601800 0.000000
236.808700 -0.125058
237.015500 -0.160467
237.222300 2.853698
237.429200 3.265290
237.636000 0.030554
237.842900 -0.462609
238.049800 -0.438236
238.256700 2.653213
238.463600 -0.289428
238.670600 2.970812
238.877500 0.006631
239.084500 -2.214844
239.291500 -0.031336
239.498500 -0.395961
239.705500 -0.442551
239.912500 -1.201397
240.119500 -1.372762
240.326600 0.292705
240.533700 0.000000
240.740700 -0.218302
240.947800 -0.158572
241.154900 0.976399
241.362100 0.373427
241.569200 0.058426
241.776400 -0.186978
241.983500 2.783904
242.190700 0.077781
242.397900 0.000000
242.605100 -0.465641
242.812400 -0.397266
243.019600 2.038173
243.226900 -0.115957
243.434100 -0.229106
243.641400 0.094922
243.848700 -0.386144
244.056000 -1.763428
244.263400 -0.291763
244.470700 3.082785
244.678100 1.514225
244.885400 -0.057992
245.092800 -0.411277
245.300200 0.044068
245.507600 -0.042720
245.715100 -0.036148
245.922500 0.811281
246.130000 -0.921839
246.337500 0.137059
246.544900 -0.674577
246.752400 0.510379
246.960000 -0.218930
247.167500 0.144597
247.375000 -2.620136
247.582600 -0.221767
247.790200 -0.154902
247.997800 0.022255
248.205400 3.262925
248.413000 1.668619
248.620600 -0.327072
248.828300 -0.035353
249.035900 0.509462
249.243600 0.039159
249.451300 1.130107
249.659000 -0.054915
249.866700 3.168203
250.074500 0.373862
250.282200 -0.063120
250.490000 3.021603
250.697800 0.079058
250.905600 -0.566488
251.113400 0.117685
251.321200 0.653611
251.529000 -0.915162
251.736900 0.312433
251.944700 0.273921
252.152600 0.437109
252.360500 0.710117
252.568400 -0.498910
252.776300 2.397940
252.984300 0.184332
253.192200 -0.156963
253.400200 0.273190
253.608200 -0.592406
253.816200 3.282396
254.024200 0.104841
254.232200 -0.972950
254.440200 0.000000
254.648300 0.088136
254.856400 2.701568
255.064400 -0.324741
255.272500 0.523573
255.480600 -0.271749
255.688800 -2.797960
255.896900 -0.016300
256.105100 3.284882
256.313200 0.071575
256.521400 -0.409420
256.729600 0.060514
256.937800 0.226458
257.146000 2.902003
257.354300 -2.984977
257.562500 0.023994
257.770800 0.000000
257.979100 0.765594
258.187400 -0.334123
258.395700 0.420973
258.604000 0.299829
258.812400 -0.036128
259.020700 0.631673
259.229100 0.192313
259.437500 0.454753
259.645900 -0.107184
259.854300 -0.096910
260.062700 0.576478
260.271100 -0.291577
260.479600 -0.128480
260.688100 0.069532
260.896500 1.170068
261.105000 2.089905
261.313500 2.621176
261.522100 0.027758
261.730600 2.945961
261.939200 2.701568
262.147700 -0.048328
262.356300 0.252314
262.564900 -0.341389
262.773500 2.907411
262.982200 -0.038407
263.190800 -3.029789
263.399500 -0.247104
263.608100 -0.068871
263.816800 0.604876
264.025500 2.396199
264.234200 -1.094248
264.442900 -1.370822
264.651700 3.097604
264.860400 2.662758
265.069200 -0.042269
265.278000 0.045363
265.486800 -0.179445
265.695600 -0.284551
265.904400 -0.389593
266.113300 2.599883
266.322100 0.489302
266.531000 2.294466
266.739900 2.294466
266.948800 0.113391
267.157700 0.058721
267.366600 0.337708
267.575500 0.064541
267.784500 -0.611439
267.993500 2.994757
268.202400 2.970812
268.411400 -0.176504
268.620500 2.761176
268.829500 -0.179232
269.038500 2.123852
269.247600 -0.198561
269.456600 2.008600
269.665700 -0.485039
269.874800 0.824626
270.083900 0.140328
270.293100 -2.944976
270.502200 0.282580
270.711400 -0.774354
270.920500 -0.089978
271.129700 2.985426
271.338900 -0.176202
271.548100 -0.060083
271.757300 3.030195
271.966600 0.890421
272.175800 0.312408
272.385100 -0.035328
272.594400 -0.356752
272.803700 3.021603
273.013000 -0.230449
273.222300 -0.179303
273.431600 0.161784
273.641000 0.688645
273.850400 0.039755
274.059700 0.093481
274.269100 0.474715
274.478500 -0.103762
274.688000 0.542080
274.897400 -0.307772
275.106900 1.591065
275.316300 -0.124748
275.525800 3.067071
275.735300 -3.155336
275.944800 1.202244
276.154300 -0.282218
276.363900 0.037405
276.573400 0.027861
276.783000 -0.271117
276.992600 0.949328
277.202200 0.207797
277.411800 0.824283
277.621400 -0.275919
277.831000 3.118595
278.040700 -0.285909
278.250300 2.820201
278.460000 0.505755
278.669700 0.624432
278.879400 -0.570491
279.089100 -0.517550
279.298900 -0.156074
279.508600 1.262287
279.718400 -0.014360
279.928100 -2.152288
280.137900 0.447476
280.347700 -0.446000
280.557600 0.279705
280.767400 0.725150
280.977200 2.872156
281.187100 0.000000
281.397000 3.089905
281.606900 -2.394452
281.816800 0.354329
282.026700 0.789733
282.236600 2.935003
282.446600 -0.362850
282.656500 -3.398981
282.866500 2.791691
283.076500 -0.323356
283.286500 0.801410
283.496500 -0.024013
283.706500 -0.147202
283.916600 -0.035171
284.126600 -2.297291
284.336700 -0.429185
284.546800 -0.313747
284.756900 0.070509
284.967000 0.629354
285.177100 -0.137157
285.387300 -2.734800
285.597400 0.093271
285.807600 2.127105
286.017800 0.359747
286.228000 -3.054613
286.438200 0.345359
286.648400 2.940516
286.858700 0.171868
287.068900 -0.243038
287.279200 -0.239048
287.489500 -0.352924
287.699800 0.319487
287.910100 -0.323800
288.120400 3.047275
288.330800 2.220108
288.541100 3.352954
288.751500 2.217484
288.961900 -0.151621
289.172300 -2.152288
289.382700 -0.099243
289.593100 -0.133211
289.803500 -2.826075
290.014000 -0.320572
290.224500 0.093983
290.434900 -2.429752
290.645400 -0.572887
290.855900 2.653213
291.066500 -0.027932
291.277000 2.744293
291.487500 -0.429469
291.698100 2.768638
291.908700 2.338456
292.119300 0.114209
292.329900 3.042969
292.540500 0.414487
292.751100 -0.286124
292.961800 0.000000
293.172400 -0.086245
293.383100 -1.568202
293.593800 0.294919
293.804500 -0.145930
294.015200 0.035482
294.226000 -2.965202
294.436700 0.016152
294.647500 -0.430158
294.858200 0.500785
295.069000 0.202898
295.279800 -0.684054
295.490600 0.000000
295.701500 0.029395
295.912300 3.082785
296.123200 3.247728
296.334000 -0.543357
296.544900 0.654996
296.755800 0.091847
296.966700 0.516130
297.177700 -0.168984
297.388600 0.011241
297.599500 -0.482536
297.810500 0.177505
298.021500 3.149219
298.232500 0.557944
298.443500 -0.971617
298.654500 3.177536
298.865600 0.425969
299.076600 -0.145684
299.287700 -3.148911
299.498800 0.058734
299.709900 0.104043
299.921000 0.356570
300.132100 0.008831
300.343200 0.405342
300.554400 -0.224940
300.765500 -0.232305
300.976700 -3.305566
301.187900 3.104487
301.399100 0.172107
301.610300 0.509232
301.821500 0.512259
302.032800 3.104487
302.244100 0.622999
302.455300 -0.184564
302.666600 -0.085578
302.877900 3.226342
303.089200 -0.576564
303.300600 0.275285
303.511900 2.970812
303.723300 2.924279
303.934600 0.884795
304.146000 -1.052529
304.357400 -0.542463
304.568800 -0.489304
304.780300 -0.039181
304.991700 0.886990
305.203100 2.271842
305.414600 -0.107184
305.626100 2.294466
305.837600 0.039456
306.049100 -0.476636
306.260600 3.051153
306.472200 2.245513
306.683700 0.731117
306.895300 0.492402
307.106900 0.297226
307.318400 0.222384
307.530100 0.102286
307.741700 0.124939
307.953300 0.492758
308.165000 -2.826075
308.376600 0.352536
308.588300 0.542455
308.800000 0.299427
309.011700 1.215109
309.223400 3.125806
309.435100 -0.764859
309.646900 0.140268
309.858600 0.070019
310.070400 -0.069062
310.282200 -1.073980
310.494000 0.552330
310.705800 1.168203
310.917600 -0.225263
311.129500 2.840106
311.341300 0.019066
311.553200 3.180413
311.765100 0.618111
311.977000 3.142702
312.188900 0.209790
312.400800 3.030600
312.612700 0.583085
312.824700 0.229077
313.036600 -0.008943
313.248600 3.332034
313.460600 0.034364
313.672600 3.275081
313.884600 1.086360
314.096700 -0.500832
314.308700 0.834487
314.520800 3.104828
314.732800 0.940379
314.944900 0.281024
315.157000 0.095218
315.369200 0.688334
315.581300 -0.289943
315.793400 -0.098836
316.005600 0.281366
316.217700 3.168203
316.429900 0.206277
316.642100 0.303099
316.854300 3.093772
317.066600 0.221152
317.278800 0.819444
317.491100 0.247313
317.703300 1.253474
317.915600 0.141110
318.127900 0.259651
318.340200 0.011601
318.552500 0.208777
318.764900 0.565218
318.977200 0.536134
319.189600 0.009005
319.401900 0.265656
319.614300 0.447059
319.826700 0.000000
320.039200 3.358886
320.251600 -0.076980
320.464000 0.584211
320.676500 -0.012090
320.889000 0.151516
321.101400 2.144769
321.313900 0.558220
321.526500 0.274507
321.739000 3.376577
321.951500 1.205731
322.164100 0.102790
322.376600 1.562820
322.589200 0.788828
322.801800 0.198722
323.014400 3.360972
323.227000 0.291919
323.439700 0.737596
323.652300 0.790050
323.865000 0.429772
324.077700 0.656650
324.290400 3.310268
324.503100 0.038135
324.715800 0.454178
324.928500 3.425697
325.141200 3.384174
325.354000 0.454720
325.566800 0.748400
325.779600 0.630531
325.992400 3.314710
326.205200 0.136207
326.418000 3.474362
326.630800 0.308957
326.843700 1.110247
327.056600 0.408223
327.269400 2.212853
327.482300 0.957958
327.695200 0.400986
327.908200 0.959392
328.121100 3.453930
328.334000 0.507630
328.547000 1.421845
328.760000 0.373655
328.973000 3.578983
329.186000 0.322018
329.399000 0.633671
329.612000 0.980869
329.825100 3.485153
330.038100 0.479921
330.251200 3.572872
330.464300 0.509387
330.677400 3.635484
330.890500 1.077839
331.103600 3.526469
331.316700 0.285179
331.529900 1.228545
331.743100 0.497875
331.956200 0.435255
332.169400 3.577836
332.382600 0.668396
332.595900 0.827846
332.809100 0.670267
333.022300 0.895769
333.235600 0.471801
333.448900 0.993422
333.662200 0.696628
333.875500 0.393793
334.088800 3.518251
334.302100 0.572613
334.515400 0.568633
334.728800 0.277132
334.942200 1.077953
335.155500 0.525627
335.368900 2.188662
335.582300 0.547457
335.795800 0.850893
336.009200 1.281425
336.222700 0.701035
336.436100 3.725258
336.649600 1.274811
336.863100 0.423443
337.076600 0.588928
337.290100 3.741388
337.503600 1.030624
337.717200 1.296892
337.930700 1.455544
338.144300 0.805605
338.357900 3.656290
338.571500 3.715669
338.785100 1.240807
338.998700 0.513646
339.212400 0.794123
339.426000 0.682355
339.639700 2.463146
339.853300 0.913114
340.067000 2.537268
340.280700 3.765594
340.494500 3.790074
340.708200 3.745543
340.921900 1.713858
341.135700 0.712209
341.349500 0.755835
341.563300 0.632916
341.777100 1.100423
341.990900 0.548997
342.204700 3.816042
342.418500 0.643148
342.632400 0.940599
342.846300 0.690253
343.060100 1.336997
343.274000 0.552499
343.487900 3.871748
343.701900 1.642896
343.915800 1.009833
344.129700 0.795154
344.343700 1.464139
344.557700 1.205588
344.771700 0.461000
344.985700 1.179702
345.199700 0.660424
345.413700 2.340712
345.627700 1.234329
345.841800 0.708854
346.055900 0.909148
346.269900 2.105216
346.484000 1.683772
346.698100 0.717798
346.912300 3.850340
347.126400 1.443614
347.340600 1.059686
347.554700 0.938288
347.768900 2.682202
347.983100 3.942058
348.197300 1.154446
348.411500 1.041393
348.625700 1.098862
348.840000 0.562356
349.054200 0.727978
349.268500 1.431751
349.482800 3.888011
349.697100 1.400496
349.911400 0.856643
350.125700 1.175771
350.340000 1.624002
350.554400 1.231201
350.768700 3.912806
350.983100 1.149923
351.197500 1.227433
351.411900 1.039461
351.626300 3.954918
351.840700 1.136957
352.055200 0.802921
352.269600 3.959471
352.484100 3.950851
352.698600 1.045096
352.913100 0.710748
353.127600 0.813222
353.342100 1.070319
353.556600 1.009736
353.771200 1.155054
353.985800 0.978441
354.200300 1.132938
354.414900 1.015892
354.629500 3.907143
354.844100 2.426071
355.058800 2.208451
355.273400 3.971369
355.488100 0.888423
355.702700 1.724276
355.917400 3.938920
356.132100 0.823239
356.346800 0.903543
356.561500 1.164886
356.776300 1.974327
356.991000 0.756409
357.205800 2.419062
357.420600 0.647758
357.635300 1.229997
357.850100 0.876228
358.065000 0.870047
358.279800 1.339075
358.494600 0.817605
358.709500 0.863968
358.924300 1.000368
359.139200 1.009426
359.354100 1.721030
359.569000 1.651509
359.783900 1.235216
359.998900 2.194036
360.213800 1.937161
360.428800 0.943572
360.643800 0.853452
360.858700 1.134871
361.073700 1.358807
361.288800 0.995647
361.503800 0.730006
361.718800 1.039990
361.933900 4.009323
362.148900 1.082368
362.364000 1.000396
362.579100 0.864738
362.794200 0.630258
363.009300 1.117043
363.224500 1.601454
363.439600 1.503142
363.654800 0.798200
363.869900 0.775554
364.085100 0.898059
364.300300 2.010681
364.515500 4.049102
364.730800 4.062845
364.946000 0.969604
365.161200 0.993712
365.376500 4.086360
365.591800 2.291377
365.807100 1.358590
366.022400 0.676055
366.237700 4.078022
366.453000 0.860884
366.668400 1.937087
366.883700 1.911345
367.099100 1.503591
367.314500 0.775912
367.529900 0.913424
367.745300 1.006790
367.960700 4.089375
368.176100 1.266997
368.391600 1.262372
368.607000 1.778279
368.822500 1.430659
369.038000 1.398124
369.253500 2.202778
369.469000 0.856080
369.684500 1.297496
369.900100 1.721035
370.115600 0.715165
370.331200 4.097847
370.546800 1.109692
370.762400 1.110076
370.978000 1.373190
371.193600 4.104351
371.409200 1.312553
371.624900 1.059993
371.840500 4.181129
372.056200 4.129561
372.271900 4.101128
372.487600 1.117225
372.703300 1.264811
372.919000 0.872795
373.134800 4.137671
373.350500 1.112445
373.566300 2.002349
373.782000 1.362749
373.997800 1.330020
374.213600 0.895400
374.429400 1.277751
374.645300 1.452858
374.861100 1.314837
375.077000 1.106731
375.292800 4.182329
375.508700 1.477441
375.724600 1.055250
375.940500 1.076015
376.156400 0.998371
376.372400 0.914804
376.588300 1.044607
376.804300 1.344858
377.020300 1.853129
377.236200 1.090418
377.452200 1.955949
377.668200 1.348866
377.884300 1.904332
378.100300 2.100977
378.316400 2.528451
378.532400 1.418548
378.748500 1.215352
378.964600 0.951670
379.180700 1.245436
379.396800 1.050548
379.612900 1.465617
379.829100 1.373895
380.045200 4.285760
380.261400 0.895540
380.477600 4.319085
380.693800 1.266886
380.910000 1.623467
381.126200 1.193753
381.342400 1.480481
381.558700 1.919884
381.774900 4.288607
381.991200 1.492073
382.207500 1.884915
382.423800 1.190143
382.640100 1.440095
382.856400 1.035769
383.072800 1.798364
383.289100 1.304547
383.505500 4.335458
383.721900 1.097832
383.938200 4.339471
384.154600 2.345099
384.371100 1.244357
384.587500 1.233847
384.803900 1.163041
385.020400 4.355509
385.236800 4.356332
385.453300 1.496361
385.669800 1.198312
385.886300 1.698932
386.102800 1.482173
386.319400 1.464650
386.535900 1.368512
386.752500 4.388581
386.969000 4.367673
387.185600 1.578935
387.402200 1.396749
387.618800 1.802877
387.835500 2.040330
388.052100 1.225432
388.268700 4.405654
388.485400 1.390345
388.702100 1.091654
388.918800 1.408065
389.135500 1.623085
389.352200 1.700545
389.568900 1.482967
389.785600 2.647939
390.002400 1.217287
390.219200 1.208082
390.435900 1.242920
390.652700 0.968018
390.869500 1.659166
391.086300 1.412677
391.303200 1.465615
391.520000 1.584832
391.736900 1.050731
391.953700 1.157401
392.170600 1.923890
392.387500 0.968647
392.604400 0.927325
392.821300 1.645422
393.038300 1.326658
393.255200 1.332452
393.472200 1.031151
393.689100 0.959631
393.906100 1.334981
394.123100 1.464623
394.340100 1.029908
394.557200 1.091490
394.774200 1.072998
394.991200 1.018301
395.208300 1.126046
395.425400 0.963130
395.642500 0.925600
395.859600 1.063692
396.076700 0.955761
396.293800 1.055415
396.510900 1.102823
396.728100 0.912191
396.945300 1.213717
397.162400 0.904078
397.379600 1.223795
397.596800 0.868212
397.814000 1.170309
398.031300 0.972605
398.248500 1.082875
398.465800 0.868176
398.683000 0.883681
398.900300 0.986187
399.117600 0.873859
399.334900 0.834882
399.552200 0.860194
399.769600 1.005223
399.986900 0.949766
400.204300 0.836541
400.421600 1.127235
400.639000 0.971519
400.856400 0.706565
401.073800 0.915663
401.291200 0.984045
401.508700 0.771270
401.726100 0.787271
401.943600 0.768271
402.161000 0.875153
402.378500 0.924616
402.596000 0.954763
402.813500 0.744444
403.031000 0.748628
403.248600 0.776386
403.466100 0.707065
403.683700 0.861696
403.901300 0.802134
404.118900 0.742066
404.336500 0.731474
404.554100 0.690831
404.771700 0.803770
404.989300 0.735716
405.207000 0.602903
405.424600 0.648839
405.642300 0.789201
405.860000 0.729584
406.077700 0.655825
406.295400 0.726230
406.513100 0.664038
406.730900 0.627413
406.948600 0.709773
407.166400 0.706778
407.384200 0.626705
407.602000 0.656496
407.819800 0.720690
408.037600 0.668164
408.255400 0.586528
408.473300 0.581583
408.691100 0.688723
408.909000 0.576712
409.126900 0.608978
409.344800 0.642516
409.562700 0.502855
409.780600 0.658318
409.998500 0.636479
410.216500 0.622486
410.434400 0.515139
410.652400 0.574938
410.870400 0.590844
411.088400 0.611118
411.306400 0.570417
411.524400 0.550785
411.742400 0.544945
411.960500 0.623054
412.178500 0.552241
412.396600 0.514211
412.614700 0.549015
412.832800 0.559265
413.050900 0.563233
413.269000 0.552833
413.487100 0.545092
413.705300 0.544859
413.923400 0.532084
414.141600 0.523482
414.359800 0.510923
414.578000 0.506126
414.796200 0.542305
415.014400 0.610834
415.232600 0.544677
415.450900 0.482120
415.669200 0.494962
415.887400 0.544483
416.105700 0.509436
416.324000 0.457038
416.542300 0.485933
416.760600 0.458231
416.979000 0.519484
417.197300 0.460404
417.415700 0.440838
417.634100 0.429780
417.852400 0.452045
418.070800 0.397302
418.289300 0.466622
418.507700 0.463893
418.726100 0.392041
418.944600 0.437812
419.163000 0.475756
419.381500 0.454474
419.600000 0.406136
419.818500 0.406085
420.037000 0.396112
420.255500 0.377883
420.474100 0.427575
420.692600 0.432224
420.911200 0.426960
421.129800 0.428493
421.348300 0.382797
421.566900 0.399535
421.785600 0.421457
422.004200 0.418602
422.222800 0.415407
422.441500 0.421784
422.660100 0.368475
422.878800 0.397583
423.097500 0.387247
423.316200 0.400473
423.534900 0.357893
423.753600 0.366665
423.972400 0.370661
424.191100 0.399584
424.409900 0.389996
424.628700 0.354646
424.847500 0.380230
425.066300 0.396265
425.285100 0.369532
425.503900 0.394006
425.722800 0.370995
425.941600 0.360776
426.160500 0.340279
426.379300 0.351907
426.598200 0.329883
426.817100 0.385458
427.036100 0.334629
427.255000 0.367595
427.473900 0.368981
427.692900 0.396394
427.911800 0.330098
428.130800 0.358742
428.349800 0.350463
428.568800 0.339946
428.787800 0.375583
429.006800 0.349010
429.225900 0.383047
429.444900 0.378519
429.664000 0.337741
429.883100 0.369366
430.102200 0.379401
430.321300 0.340015
430.540400 0.314796
430.759500 0.344735
430.978700 0.297752
431.197800 0.320857
431.417000 0.312213
431.636200 0.319218
431.855300 0.348514
432.074500 0.326816
432.293800 0.305549
432.513000 0.378252
432.732200 0.319514
432.951500 0.323066
433.170700 0.371184
433.390000 0.325774
433.609300 0.357430
433.828600 0.362475
434.047900 0.344846
434.267300 0.351554
434.486600 0.322556
434.705900 0.288496
434.925300 0.355864
435.144700 0.329798
435.364100 0.346496
435.583500 0.309414
435.802900 0.280758
436.022300 0.304549
436.241800 0.325908
436.461200 0.307931
436.680700 0.307031
436.900100 0.325942
437.119600 0.360058
437.339100 0.332357
437.558600 0.327307
437.778200 0.311832
437.997700 0.336035
438.217300 0.299706
438.436800 0.292272
438.656400 0.326440
438.876000 0.348340
439.095600 0.369612
439.315200 0.298884
439.534800 0.313293
439.754500 0.312737
439.974100 0.342237
440.193800 0.355003
440.413500 0.368053
440.633100 0.341880
440.852800 0.331909
441.072500 0.361769
441.292300 0.360746
441.512000 0.340441
441.731800 0.357483
441.951500 0.312750
442.171300 0.354667
442.391100 0.318803
442.610900 0.340856
442.830700 0.370834
443.050500 0.380785
443.270300 0.330273
443.490200 0.324451
443.710100 0.338227
443.929900 0.361328
444.149800 0.369784
444.369700 0.331188
444.589600 0.317137
444.809500 0.367092
445.029500 0.388745
445.249400 0.326492
445.469400 0.333245
445.689400 0.374490
445.909300 0.347014
446.129300 0.384827
446.349300 0.344159
446.569400 0.376879
446.789400 0.363052
447.009400 0.391499
447.229500 0.351838
447.449600 0.371592
447.669600 0.379408
447.889700 0.387894
448.109800 0.337755
448.330000 0.368616
448.550100 0.381446
448.770200 0.365648
448.990400 0.359060
449.210600 0.408584
449.430700 0.352685
449.650900 0.370152
449.871100 0.370650
450.091400 0.375449
450.311600 0.383437
450.531800 0.399154
450.752100 0.391784
450.972400 0.369607
451.192600 0.374816
451.412900 0.379619
451.633200 0.423738
451.853500 0.392600
452.073900 0.400665
452.294200 0.438856
452.514600 0.393146
452.734900 0.351584
452.955300 0.389785
453.175700 0.434265
453.396100 0.417004
453.616500 0.390624
453.836900 0.421046
454.057400 0.367586
454.277800 0.398288
454.498300 0.428537
454.718800 0.372715
454.939300 0.419583
455.159700 0.410011
455.380300 0.442975
455.600800 0.402219
455.821300 0.415665
456.041900 0.480724
456.262400 0.459163
456.483000 0.420935
456.703600 0.430167
456.924200 0.456266
457.144800 0.516185
457.365400 0.405898
457.586000 0.471436
457.806700 0.480002
458.027400 0.479837
458.248000 0.460917
458.468700 0.473926
458.689400 0.416772
458.910100 0.477163
459.130800 0.488394
459.351600 0.459905
459.572300 0.449210
459.793100 0.469433
460.013800 0.501131
460.234600 0.467413
460.455400 0.505079
460.676200 0.524719
460.897000 0.465978
461.117800 0.506696
461.338700 0.552381
461.559500 0.523184
461.780400 0.509873
462.001300 0.537337
462.222200 0.510532
462.443100 0.522447
462.664000 0.533614
462.884900 0.519808
463.105900 0.536990
463.326800 0.530054
463.547800 0.558514
463.768700 0.551095
463.989700 0.589385
464.210700 0.536882
464.431700 0.504590
464.652800 0.563261
464.873800 0.575179
465.094800 0.571238
465.315900 0.576165
465.537000 0.609335
465.758100 0.634237
465.979200 0.553491
466.200300 0.540651
466.421400 0.596230
466.642500 0.667984
466.863700 0.547500
467.084800 0.598050
467.306000 0.565218
467.527200 0.643979
467.748400 0.623036
467.969600 0.573005
468.190800 0.588476
468.412000 0.618324
468.633300 0.669876
468.854500 0.611582
469.075800 0.566406
469.297000 0.622056
469.518300 0.638963
469.739600 0.613537
469.961000 0.636696
470.182300 0.679279
470.403600 0.604594
470.625000 0.643512
470.846300 0.663009
471.067700 0.691589
471.289100 0.699851
471.510500 0.664790
471.731900 0.643064
471.953300 0.734013
472.174800 0.693080
472.396200 0.742582
472.617700 0.613794
472.839100 0.791528
473.060600 0.682983
473.282100 0.776355
473.503600 0.715569
473.725100 0.717827
473.946700 0.694063
474.168200 0.710315
474.389800 0.735041
474.611300 0.768482
474.832900 0.726549
475.054500 0.729721
475.276100 0.742021
475.497700 0.717873
475.719300 0.690897
475.941000 0.739419
476.162600 0.778796
476.384300 0.811808
476.606000 0.761916
476.827700 0.813049
477.049400 0.768192
477.271100 0.876996
477.492800 0.833777
477.714500 0.775193
477.936300 0.858207
478.158000 0.795309
478.379800 0.785002
478.601600 0.815614
478.823400 0.844619
479.045200 0.818816
479.267000 0.820779
479.488800 0.871271
479.710700 0.842950
479.932500 0.855836
480.154400 0.862259
480.376300 0.853936
480.598200 0.871212
480.820100 0.855135
481.042000 0.835425
481.263900 0.804001
481.485900 0.862323
481.707800 0.864300
481.929800 0.774682
482.151700 0.904643
482.373700 0.821817
482.595700 0.912693
482.817700 0.972308
483.039800 0.944479
483.261800 0.857205
483.483800 0.900775
483.705900 0.859310
483.928000 0.941918
484.150100 0.851597
484.372100 0.962721
484.594300 0.839288
484.816400 0.938216
485.038500 0.922657
485.260600 1.007587
485.482800 1.024784
485.705000 1.007023
485.927100 1.002517
486.149300 0.990354
486.371500 1.035130
486.593700 0.996536
486.816000 1.024828
487.038200 1.009779
487.260500 0.957979
487.482700 0.924410
487.705000 1.002833
487.927300 0.967986
488.149600 0.909182
488.371900 0.975700
488.594200 1.025597
488.816500 0.970413
489.038900 1.023885
489.261200 1.072464
489.483600 1.047865
489.706000 1.088916
489.928400 0.961494
490.150800 1.040860
490.373200 1.080903
490.595600 0.987172
490.818000 0.991460
491.040500 1.130864
491.263000 0.902318
491.485400 1.092621
491.707900 0.904696
491.930400 1.209941
492.152900 0.901379
492.375500 1.271988
492.598000 1.109950
492.820500 1.035253
493.043100 1.117999
493.265700 1.007541
493.488200 1.217500
493.710800 1.008598
493.933400 1.065972
494.156100 1.027190
494.378700 1.125214
494.601300 1.035561
494.824000 1.078966
495.046600 1.138705
495.269300 0.934225
495.492000 1.103463
495.714700 1.144554
495.937400 1.133010
496.160100 1.068709
496.382900 1.136819
496.605600 1.171272
496.828400 1.282407
497.051100 1.221972
497.273900 1.077796
497.496700 1.108997
497.719500 0.993227
497.942300 1.009006
498.165200 1.030838
498.388000 1.163033
498.610900 0.917041
498.833700 1.020567
499.056600 1.251791
499.279500 1.000740
499.502400 1.169733
499.725300 1.085710
499.948200 1.128801
500.171200 1.167060
500.394100 1.182954
500.617100 1.088667
500.840000 1.120048
501.063000 1.229341
501.286000 1.410259
501.509000 0.946563
501.732000 1.258998
501.955100 1.153522
502.178100 1.198277
502.401200 0.962893
502.624200 1.240739
502.847300 1.210424
503.070400 1.260403
503.293500 1.136873
503.516600 1.206871
503.739700 1.189873
503.962800 1.099432
504.186000 0.945217
504.409200 1.166103
504.632300 1.066816
504.855500 1.160411
505.078700 1.022216
505.301900 1.401534
505.525100 1.187978
505.748300 1.138656
505.971600 1.195482
506.194800 1.244789
506.418100 1.137288
506.641400 1.189553
506.864700 1.104593
507.088000 0.992390
507.311300 0.973397
507.534600 1.101479
507.757900 1.055125
507.981300 1.255045
508.204600 1.112993
508.428000 1.304667
508.651400 1.082407
508.874800 1.153706
509.098200 1.098669
509.321600 1.141423
509.545000 0.981339
509.768500 1.560033
509.991900 1.159887
510.215400 1.113039
510.438800 1.026554
510.662300 1.284074
510.885800 1.087066
511.109300 1.186682
511.332900 1.271811
511.556400 1.006396
511.779900 1.218231
512.003500 1.054479
512.227000 1.108728
512.450600 1.151266
512.674200 1.028939
512.897800 1.189371
513.121400 1.358581
513.345100 1.097481
513.568700 1.028512
513.792300 1.062365
514.016000 0.956761
514.239700 0.947993
514.463400 1.053888
514.687100 1.180235
514.910800 0.984589
515.134500 1.090507
515.358200 1.138375
515.581900 1.029143
515.805700 1.042704
516.029500 1.117604
516.253200 1.170851
516.477000 1.148326
516.700800 1.163525
516.924600 1.583130
517.148500 1.037027
517.372300 1.047057
517.596100 1.166065
517.820000 1.256982
518.043900 1.043569
518.267700 1.073023
518.491600 0.981193
518.715500 1.066870
518.939500 1.278607
519.163400 1.074063
519.387300 1.173603
519.611300 1.087066
519.835200 1.032916
520.059200 1.256491
520.283200 0.954595
520.507200 0.957148
520.731200 1.038780
520.955200 1.046654
521.179200 1.146377
521.403300 1.044411
521.627300 1.096564
521.851400 1.035366
522.075500 1.046417
522.299600 0.928626
522.523700 1.016908
522.747800 0.876533
522.971900 1.067561
523.196000 0.991898
523.420200 0.919771
523.644300 0.839695
523.868500 0.967102
524.092700 1.035330
524.316900 1.040891
524.541100 0.920274
524.765300 0.961104
524.989500 0.992903
525.213800 0.888286
525.438000 0.860572
525.662300 1.055664
525.886500 0.917002
526.110800 0.834138
526.335100 0.821724
526.559400 0.946965
526.783700 0.884553
527.008100 0.924568
527.232400 0.876456
527.456800 0.942097
527.681100 0.968949
527.905500 0.853025
528.129900 0.953009
528.354300 0.980929
528.578700 0.860216
528.803100 0.946199
529.027600 0.879172
529.252000 1.016811
529.476500 0.867145
529.700900 0.805452
529.925400 0.876668
530.149900 0.934358
530.374400 0.917539
530.598900 0.858672
530.823400 0.859317
531.048000 0.951450
531.272500 0.815686
531.497100 0.794562
531.721700 0.740201
531.946200 0.937655
532.170800 0.817294
532.395400 0.824364
532.620000 0.757648
532.844700 0.892172
533.069300 0.839528
533.294000 0.768499
533.518600 0.731410
533.743300 0.805666
533.968000 0.758102
534.192700 0.772026
534.417400 0.751564
534.642100 0.783960
534.866800 0.741155
535.091600 0.762452
535.316300 0.737095
535.541100 0.797510
535.765900 0.718078
535.990700 0.811113
536.215500 0.760837
536.440300 0.799785
536.665100 0.742536
536.889900 0.792501
537.114800 0.661011
537.339600 0.731697
537.564500 0.685564
537.789400 0.767063
538.014300 0.635813
538.239200 0.691720
538.464100 0.703338
538.689000 0.644656
538.913900 0.688896
539.138900 0.755568
539.363800 0.666646
539.588800 0.634305
539.813800 0.620896
540.038800 0.683332
540.263800 0.703862
540.488800 0.685708
540.713800 0.571499
540.938900 0.647257
541.163900 0.611611
541.389000 0.616449
541.614000 0.584334
541.839100 0.630381
542.064200 0.572523
542.289300 0.622606
542.514400 0.557777
542.739600 0.598879
542.964700 0.548344
543.189900 0.602069
543.415000 0.669848
543.640200 0.549351
543.865400 0.576945
544.090600 0.590595
544.315800 0.558570
544.541000 0.594928
544.766200 0.549373
544.991500 0.516595
545.216700 0.522317
545.442000 0.568315
545.667300 0.578391
545.892600 0.508663
546.117900 0.504799
546.343200 0.525610
546.568500 0.517242
546.793800 0.510703
547.019200 0.511193
547.244500 0.550910
547.469900 0.449441
547.695300 0.489628
547.920600 0.491407
548.146000 0.506457
548.371500 0.483374
548.596900 0.478293
548.822300 0.459462
549.047800 0.483733
549.273200 0.431962
549.498700 0.449957
549.724200 0.473512
549.949600 0.446771
550.175100 0.424626
550.400700 0.440443
550.626200 0.428635
550.851700 0.449972
551.077300 0.448810
551.302800 0.404870
551.528400 0.413540
551.754000 0.388492
551.979600 0.412384
552.205200 0.408948
552.430800 0.397602
552.656400 0.387704
552.882000 0.425279
553.107700 0.383953
553.333300 0.428136
553.559000 0.379811
553.784700 0.382886
554.010400 0.381816
554.236100 0.349431
554.461800 0.405058
554.687500 0.341491
554.913200 0.361551
555.139000 0.370296
555.364800 0.362396
555.590500 0.340946
555.816300 0.303838
556.042100 0.368682
556.267900 0.325294
556.493700 0.336343
556.719500 0.341775
556.945400 0.300413
557.171200 0.317996
557.397100 0.336676
557.623000 0.345704
557.848800 0.283411
558.074700 0.308022
558.300600 0.299836
558.526600 0.279297
558.752500 0.281503
558.978400 0.308554
559.204400 0.271245
559.430300 0.288497
559.656300 0.266144
559.882300 0.234977
560.108300 0.282728
560.334300 0.320025
560.560300 0.268132
560.786300 0.260363
561.012400 0.233114
561.238400 0.259162
561.464500 0.252636
561.690500 0.286043
561.916600 0.248379
562.142700 0.265935
562.368800 0.249510
562.594900 0.276930
562.821100 0.243726
563.047200 0.263480
563.273300 0.223918
563.499500 0.228953
563.725700 0.216777
563.951900 0.186867
564.178100 0.214590
564.404300 0.239656
564.630500 0.243692
564.856700 0.200563
565.082900 0.206897
565.309200 0.217681
565.535500 0.215610
565.761700 0.209425
565.988000 0.190270
566.214300 0.184158
566.440600 0.202593
566.666900 0.200352
566.893200 0.205282
567.119600 0.194267
567.345900 0.196345
567.572300 0.173349
567.798700 0.181889
568.025000 0.178570
568.251400 0.183447
568.477800 0.196981
568.704300 0.177421
568.930700 0.172194
569.157100 0.177872
569.383600 0.170567
569.610000 0.168374
569.836500 0.165177
570.063000 0.171319
570.289500 0.181828
570.516000 0.184762
570.742500 0.173836
570.969000 0.164382
571.195600 0.165070
571.422100 0.158611
571.648700 0.154062
571.875200 0.158270
572.101800 0.160270
572.328400 0.153642
572.555000 0.144211
572.781600 0.157491
573.008200 0.145377
573.234900 0.142700
573.461500 0.141586
573.688200 0.144826
573.914900 0.143392
574.141500 0.140449
574.368200 0.136012
574.594900 0.128408
574.821600 0.131518
575.048400 0.139150
575.275100 0.134271
575.501800 0.142228
575.728600 0.134600
575.955400 0.124201
576.182100 0.135996
576.408900 0.123001
576.635700 0.129260
576.862600 0.120142
577.089400 0.122516
577.316200 0.125053
577.543100 0.115619
577.769900 0.119249
577.996800 0.125228
578.223700 0.123301
578.450500 0.112413
578.677400 0.121405
578.904400 0.103355
579.131300 0.108315
579.358200 0.098836
579.585100 0.097479
579.812100 0.100109
580.039100 0.095747
580.266000 0.088079
580.493000 0.096483
580.720000 0.091469
580.947000 0.088677
581.174100 0.093906
581.401100 0.096787
581.628100 0.099525
581.855200 0.086153
582.082200 0.093320
582.309300 0.091814
582.536400 0.086138
582.763500 0.079849
582.990600 0.082165
583.217700 0.076073
583.444900 0.076454
583.672000 0.075020
583.899100 0.071495
584.126300 0.076187
584.353500 0.073392
584.580700 0.065184
584.807900 0.092224
585.035100 0.089106
585.262300 0.080549
585.489500 0.084292
585.716700 0.076887
585.944000 0.078580
586.171300 0.073387
586.398500 0.078932
586.625800 0.067737
586.853100 0.066369
587.080400 0.066214
587.307700 0.066185
587.535000 0.074456
587.762400 0.061606
587.989700 0.064650
588.217100 0.068334
588.444500 0.055487
588.671800 0.060655
588.899200 0.063530
589.126600 0.062187
589.354000 0.069975
589.581500 0.062928
589.808900 0.053419
590.036300 0.066799
590.263800 0.060264
590.491300 0.058843
590.718700 0.051982
590.946200 0.063160
591.173700 0.049174
591.401200 0.063975
591.628800 0.066236
591.856300 0.061093
592.083800 0.056910
592.311400 0.044997
592.538900 0.050887
592.766500 0.069122
592.994100 0.055147
593.221700 0.054866
593.449300 0.054032
593.676900 0.053263
593.904600 0.047326
594.132200 0.051157
594.359800 0.043010
594.587500 0.049509
594.815200 0.052328
595.042900 0.060465
595.270500 0.047347
595.498300 0.042017
595.726000 0.051534
595.953700 0.045546
596.181400 0.046329
596.409200 0.040735
596.636900 0.046667
596.864700 0.058913
597.092500 0.042564
597.320300 0.061690
597.548100 0.049189
597.775900 0.050689
598.003700 0.045448
598.231500 0.047794
598.459400 0.051511
598.687200 0.056801
598.915100 0.062503
599.143000 0.049343
599.370900 0.040650
599.598800 0.048239
599.826700 0.045749
600.054600 0.048363
600.282500 0.052870
600.510500 0.042548
600.738400 0.033619
600.966400 0.033275
601.194400 0.036815
601.422300 0.026976
601.650300 0.027343
601.878300 0.035235
602.106400 0.035648
602.334400 0.032800
602.562400 0.041588
602.790500 0.034572
603.018500 0.034191
603.246600 0.047241
603.474700 0.043934
603.702800 0.035571
603.930900 0.043175
604.159000 0.035580
604.387100 0.049859
604.615200 0.033687
604.843400 0.043709
605.071500 0.041087
605.299700 0.029733
605.527900 0.024274
605.756100 0.035897
605.984300 0.022376
606.212500 0.024202
606.440700 0.003687
606.668900 0.010781
606.897200 0.012785
607.125400 0.026576
607.353700 0.015616
607.581900 0.023084
607.810200 0.022706
608.038500 0.027114
608.266800 0.016826
608.495100 0.026050
608.723500 0.007593
608.951800 0.027458
609.180100 0.014645
609.408500 0.024771
609.636900 0.025201
609.865300 0.021043
610.093600 0.029403
610.322000 0.027585
610.550500 0.029129
610.778900 0.015563
611.007300 0.021475
611.235700 0.027772
611.464200 0.035975
611.692700 0.025502
611.921100 0.023207
612.149600 0.032307
612.378100 0.036804
612.606600 0.017202
612.835100 0.024039
613.063700 0.021792
613.292200 0.018055
613.520800 0.013752
613.749300 0.016340
613.977900 0.021773
614.206500 0.028479
614.435100 0.021300
614.663700 0.022859
614.892300 0.026485
615.120900 0.026762
615.349500 0.028968
615.578200 0.022474
615.806800 0.029976
616.035500 0.034300
616.264200 0.020880
616.492900 0.030143
616.721600 0.020645
616.950300 0.017964
617.179000 0.025489
617.407700 0.025260
617.636500 0.014869
617.865200 0.021368
618.094000 0.021475
618.322700 0.012439
618.551500 0.004176
618.780300 0.015407
619.009100 0.015676
619.237900 0.012496
619.466700 0.008049
619.695600 0.006195
619.924400 0.006520
620.153300 0.022359
620.382100 0.017064
620.611000 0.011725
620.839900 0.008247
621.068800 -0.001141
621.297700 0.017957
621.526600 0.007801
621.755600 0.014556
621.984500 0.038715
622.213500 0.018414
622.442400 0.013049
622.671400 0.022862
622.900400 0.014920
623.129400 0.024705
623.358400 0.019090
623.587400 0.011244
623.816400 0.019827
624.045400 0.025622
624.274500 0.030909
624.503500 -0.007450
624.732600 0.008557
624.961700 0.014033
625.190800 0.006883
625.419900 0.012489
625.649000 0.021575
625.878100 0.012612
626.107200 0.002920
626.336400 -0.011197
626.565500 0.014594
626.794700 0.023928
627.023800 0.013122
627.253000 -0.010300
627.482200 0.021586
627.711400 -0.007492
627.940600 0.023286
628.169800 0.003312
628.399100 0.010314
628.628300 0.010358
628.857600 0.030446
629.086800 0.004687
629.316100 0.025179
629.545400 0.005533
629.774700 0.006276
630.004000 0.017389
630.233300 0.004869
630.462600 0.011970
630.692000 -0.003484
630.921300 0.012918
631.150700 0.022846
631.380100 0.000282
631.609400 0.022599
631.838800 0.032698
632.068200 -0.004390
632.297600 0.015424
632.527100 0.020837
632.756500 -0.000407
632.985900 0.021837
633.215400 0.016140
633.444800 0.008480
633.674300 0.016368
633.903800 0.016241
634.133300 0.017950
634.362800 0.014577
634.592300 0.004980
634.821800 0.008243
635.051400 0.020217
635.280900 0.004925
635.510500 -0.020663
635.740000 0.014867
635.969600 0.033406
636.199200 0.003531
636.428800 0.010239
636.658400 0.029885
636.888000 0.005791
637.117700 0.032662
637.347300 0.008022
637.577000 0.027026
637.806600 0.028254
638.036300 0.008460
638.266000 0.007662
638.495700 0.037225
638.725400 -0.014527
638.955100 0.011392
639.184800 -0.008704
639.414500 0.009524
639.644300 0.005136
639.874000 0.000011
640.103800 -0.001923
640.333600 0.016401
640.563300 -0.034291
640.793100 0.019259
641.022900 0.004796
641.252800 0.022008
641.482600 0.044597
641.712400 0.016186
641.942300 0.036129
642.172100 0.028672
642.402000 0.002963
642.631900 -0.008145
642.861700 0.017268
643.091600 0.031712
643.321600 0.021205
643.551500 -0.015073
643.781400 0.001415
644.011300 -0.022232
644.241300 0.010602
644.471200 0.004901
644.701200 -0.029315
644.931200 0.000821
645.161200 -0.000725
645.391200 0.017249
645.621200 0.037426
645.851200 -0.005957
646.081200 0.004533
646.311300 0.009861
646.541300 0.018924
646.771400 -0.019293
647.001500 0.007307
647.231600 0.015827
647.461600 0.050996
647.691800 -0.013791
647.921900 -0.009560
648.152000 -0.021206
648.382100 0.059374
648.612300 0.043667
648.842400 0.012894
649.072600 0.041337
649.302800 0.001044
649.532900 0.022589
649.763100 0.005699
649.993300 0.022145
650.223600 -0.004817
650.453800 -0.005961
650.684000 -0.006673
650.914300 -0.023274
651.144500 -0.023157
651.374800 0.026710
651.605100 0.012016
651.835400 -0.013255
652.065700 0.014418
652.296000 -0.008882
652.526300 -0.018936
652.756600 0.004110
652.987000 -0.011629
653.217300 0.002143
653.447700 0.020917
653.678000 -0.018506
653.908400 -0.019626
654.138800 0.020254
654.369200 0.038695
654.599600 0.015375
654.830000 0.021971
655.060500 -0.001396
655.290900 0.012862
655.521300 0.022711
655.751800 0.032000
655.982300 0.002910
656.212800 0.000974
656.443300 0.001458
656.673800 0.001232
656.904300 0.002850
657.134800 0.025411
657.365300 0.024623
657.595900 0.022151
657.826400 0.023246
658.057000 0.023251
658.287500 0.015089
658.518100 0.007305
658.748700 0.017941
658.979300 0.014156
659.209900 -0.000770
659.440600 -0.021017
659.671200 -0.037850
659.901800 -0.050537
660.132500 -0.034573
660.363200 -0.007551
660.593800 0.001361
660.824500 -0.017437
661.055200 0.006256
661.285900 0.001070
661.516600 0.003675
661.747400 0.033449
661.978100 -0.021021
662.208800 0.033000
662.439600 0.008899
662.670400 0.014382
662.901100 0.039635
663.131900 0.058783
663.362700 -0.005678
663.593500 0.042834
663.824300 0.016509
664.055200 0.013810
664.286000 -0.026517
664.516800 0.005762
664.747700 0.043037
664.978600 -0.032753
665.209400 0.001817
665.440300 0.037236
665.671200 -0.004692
665.902100 0.049625
666.133000 0.006569
666.364000 0.018365
666.594900 -0.005764
666.825900 -0.027047
667.056800 0.016768
667.287800 0.001491
667.518800 -0.015525
667.749700 0.025259
667.980700 -0.004501
668.211700 -0.009380
668.442800 0.024902
668.673800 0.062461
668.904800 -0.007578
669.135900 0.032534
669.366900 0.054347
669.598000 0.035828
669.829100 0.047144
670.060200 0.002822
670.291300 0.034716
670.522400 0.057343
670.753500 -0.005028
670.984600 0.006369
671.215700 0.002596
671.446900 0.034482
671.678100 0.032492
671.909200 0.026040
672.140400 0.001815
672.371600 -0.008379
672.602800 0.027565
672.834000 -0.011706
673.065200 -0.013999
673.296400 0.011598
673.527700 0.000938
673.758900 -0.023736
673.990200 0.018724
674.221400 0.024890
674.452700 -0.003906
674.684000 0.021599
674.915300 0.041306
675.146600 0.000801
675.377900 -0.025955
675.609300 0.008289
675.840600 0.040316
676.071900 0.016598
676.303300 0.003023
676.534700 -0.010324
676.766100 -0.007932
676.997400 0.030615
677.228800 0.018789
677.460200 0.038212
677.691700 0.009477
677.923100 0.009410
678.154500 0.040116
678.386000 0.027228
678.617400 -0.010995
678.848900 -0.003317
679.080400 -0.004725
679.311900 -0.015423
679.543400 0.023979
679.774900 0.006557
680.006400 0.031099
680.237900 -0.007148
680.469400 -0.005229
680.701000 0.005997
680.932500 0.003019
681.164100 0.010144
681.395700 0.027484
681.627300 0.021933
681.858900 0.013196
682.090500 -0.001430
682.322100 0.002496
682.553700 -0.017286
682.785400 -0.003839
683.017000 -0.013833
683.248700 0.018131
683.480300 -0.012289
683.712000 -0.057460
683.943700 -0.027067
684.175400 0.013029
684.407100 0.014642
684.638800 0.004751
684.870500 0.022628
685.102300 0.022565
685.334000 0.015640
685.565800 0.001150
685.797500 0.018451
686.029300 0.010242
686.261100 0.017985
686.492900 0.007929
686.724700 0.012741
686.956500 0.000215
687.188300 0.011361
687.420200 0.006448
687.652000 -0.007189
687.883800 0.010571
688.115700 0.002760
688.347600 0.004371
688.579500 -0.011409
688.811400 0.004319
689.043300 -0.004341
689.275200 0.006705
689.507100 0.022997
689.739000 -0.006087
689.971000 0.006236
690.202900 0.009047
690.434900 0.034436
690.666900 -0.006514
690.898800 0.011555
691.130800 0.006930
691.362800 -0.021830
691.594800 0.000600
691.826900 0.013451
692.058900 0.005789
692.290900 0.010889
692.523000 0.005350
692.755000 0.003186
692.987100 0.013014
693.219200 0.002773
693.451300 0.040036
693.683400 0.016190
693.915500 0.006245
694.147600 0.005656
694.379700 -0.005163
694.611900 0.014538
694.844000 0.020032
695.076200 -0.013838
695.308300 0.004735
695.540500 0.017358
695.772700 -0.003332
696.004900 0.007565
696.237100 0.000404
696.469300 -0.002946
696.701600 0.012804
696.933800 0.002659
697.166000 -0.006954
697.398300 0.031615
697.630600 -0.004457
697.862800 0.025274
698.095100 0.019090
698.327400 0.019405
698.559700 0.012699
698.792000 0.007740
699.024300 0.021420
699.256700 -0.004505
699.489000 0.029687
699.721400 0.014787
699.953700 -0.009902
700.186100 -0.000081
700.418500 0.022274
700.650900 0.007295
700.883300 -0.006314
701.115700 0.009915
701.348100 -0.018542
701.580600 -0.004985
701.813000 -0.002969
702.045400 -0.001308
702.277900 0.015424
702.510400 0.022516
702.742900 -0.020968
702.975300 -0.003663
703.207800 0.008035
703.440300 0.022056
703.672900 0.025373
703.905400 -0.003980
704.137900 -0.012461
704.370500 0.003340
704.603000 -0.005293
704.835600 -0.000377
705.068200 -0.011936
705.300800 -0.015477
705.533400 -0.013901
705.766000 0.009306
705.998600 0.041610
706.231200 0.001444
706.463800 0.006563
706.696500 0.015951
706.929100 0.020354
707.161800 -0.043536
707.394500 -0.003817
707.627200 0.006908
707.859900 0.032279
708.092600 0.009642
708.325300 0.003830
708.558000 -0.002400
708.790700 0.030808
709.023500 0.025723
709.256200 -0.021639
709.489000 -0.019526
709.721700 -0.014419
709.954500 -0.015088
710.187300 -0.013104
710.420100 -0.002418
710.652900 -0.010733
710.885700 -0.015674
711.118600 -0.001605
711.351400 -0.032654
711.584200 0.025956
711.817100 -0.023652
712.050000 -0.018076
712.282800 -0.033856
712.515700 -0.028455
712.748600 0.000249
712.981500 -0.016600
713.214400 -0.016429
713.447400 -0.016770
713.680300 -0.007632
713.913200 -0.048004
714.146200 -0.024833
714.379100 -0.016118
714.612100 0.022223
714.845100 0.001503
715.078100 -0.000097
715.311100 0.008111
715.544100 0.014017
715.777100 -0.023179
716.010200 -0.016922
716.243200 -0.003332
716.476200 0.055794
716.709300 0.026515
716.942400 0.008569
717.175400 -0.036498
717.408500 0.008829
717.641600 -0.021715
717.874700 -0.011042
718.107800 0.035269
718.341000 0.010657
718.574100 0.020400
718.807200 0.014413
719.040400 0.035507
719.273600 -0.013738
719.506700 0.009619
719.739900 -0.005139
719.973100 -0.002165
720.206300 0.020665
720.439500 -0.019277
720.672700 -0.002268
720.906000 -0.022132
721.139200 -0.014222
721.372500 0.018089
721.605700 0.008789
721.839000 0.066541
722.072300 0.009967
722.305500 0.008783
722.538800 0.012140
722.772100 0.046351
723.005500 -0.015909
723.238800 0.004749
723.472100 -0.020820
723.705500 0.005169
723.938800 -0.003775
724.172200 -0.013509
724.405600 -0.011879
724.638900 0.032527
724.872300 -0.013686
725.105700 -0.008852
725.339100 0.035836
725.572600 -0.000629
725.806000 -0.002762
726.039400 0.007560
726.272900 0.030271
726.506300 0.010533
726.739800 0.001386
726.973300 0.007793
727.206800 0.007550
727.440300 -0.000763
727.673800 -0.002426
727.907300 0.004650
728.140800 0.022854
728.374300 -0.017421
728.607900 0.004658
728.841400 -0.012837
729.075000 -0.025304
729.308600 0.003113
729.542100 -0.018805
729.775700 0.019958
730.009300 -0.008761
730.242900 0.010493
730.476600 0.021116
730.710200 0.019012
730.943800 0.027565
731.177500 0.012233
731.411100 -0.001369
731.644800 0.024444
731.878500 0.020911
732.112200 -0.001855
732.345800 0.007670
732.579500 0.036720
732.813300 0.024717
733.047000 0.010268
733.280700 0.021360
733.514500 0.009823
733.748200 0.017255
733.982000 0.012178
734.215700 -0.000846
734.449500 0.020380
734.683300 0.011997
734.917100 0.002313
735.150900 0.009151
735.384700 0.010959
735.618500 0.007327
735.852400 0.027553
736.086200 0.021827
736.320100 -0.014426
736.553900 0.012311
736.787800 0.000729
737.021700 0.002113
737.255600 0.022258
737.489500 0.000748
737.723400 -0.026304
737.957300 0.015126
738.191200 -0.017858
738.425200 -0.000550
738.659100 0.003151
738.893100 -0.042299
739.127100 -0.009123
739.361000 0.033643
739.595000 0.026116
739.829000 -0.016084
740.063000 -0.033468
740.297000 0.023333
740.531000 -0.003319
740.765100 0.007990
740.999100 0.038673
741.233200 0.033818
741.467200 -0.014810
741.701300 -0.012444
741.935400 -0.020665
742.169500 -0.025539
742.403600 0.003023
742.637700 -0.010395
742.871800 -0.021478
743.105900 0.001843
743.340000 -0.009704
743.574200 0.009282
743.808300 0.004943
744.042500 -0.027276
744.276700 0.026213
744.510800 -0.009419
744.745000 -0.011043
744.979200 0.006305
745.213400 -0.025387
745.447700 -0.010105
745.681900 -0.016350
745.916100 -0.003461
746.150400 0.005285
746.384600 0.046033
746.618900 -0.003281
746.853200 0.016166
747.087400 -0.004518
747.321700 0.028609
747.556000 -0.009072
747.790300 0.008634
748.024700 -0.034075
748.259000 -0.000210
748.493300 0.003387
748.727700 0.013050
748.962000 0.016906
749.196400 -0.025627
749.430800 0.004295
749.665200 0.011933
749.899500 0.010872
750.133900 -0.006518
750.368400 0.029682
750.602800 0.001911
750.837200 -0.032198
751.071700 0.017641
751.306100 0.005048
751.540600 0.004114
751.775000 0.015994
752.009500 0.007756
752.244000 0.001639
752.478500 0.012435
752.713000 0.014207
752.947500 0.007059
753.182000 0.016500
753.416600 -0.017018
753.651100 0.030409
753.885600 0.004206
754.120200 0.014110
754.354800 0.013966
754.589400 -0.010153
754.823900 0.008965
755.058500 -0.001345
755.293100 -0.005275
755.527800 0.009516
755.762400 0.003386
755.997000 0.020727
756.231700 0.021697
756.466300 -0.005718
756.701000 0.022553
756.935600 -0.007710
757.170300 0.004925
757.405000 0.031554
757.639700 0.006020
757.874400 0.007329
758.109100 0.012143
758.343800 0.007456
758.578600 0.020153
758.813300 0.018454
759.048100 0.007267
759.282800 0.018852
759.517600 0.004190
759.752400 0.011889
759.987200 -0.004389
760.222000 -0.003520
760.456800 0.009572
760.691600 0.018852
760.926400 0.010079
761.161300 0.004805
761.396100 -0.000997
761.631000 -0.003018
761.865800 0.013716
762.100700 -0.008956
762.335600 0.016298
762.570500 -0.010565
762.805400 -0.012221
763.040300 0.005225
763.275200 0.008858
763.510100 -0.006121
763.745000 -0.008571
763.980000 0.027178
764.214900 0.006702
764.449900 0.015882
764.684900 0.006527
764.919800 -0.007814
765.154800 -0.010465
765.389800 0.015766
765.624800 0.012660
765.859900 0.000392
766.094900 -0.015100
766.329900 0.014538
766.565000 0.019270
766.800000 -0.011952
767.035100 0.000000
767.270100 0.017892
767.505200 0.000496
767.740300 0.004561
767.975400 0.010932
768.210500 -0.002719
768.445600 -0.010656
768.680800 -0.015475
768.915900 0.029074
769.151000 -0.010745
769.386200 0.002767
769.621400 0.001672
769.856500 0.022346
770.091700 0.003660
770.326900 -0.008649
770.562100 -0.009206
770.797300 -0.011043
771.032500 -0.013050
771.267700 0.003731
771.503000 -0.003679
771.738200 0.021528
771.973500 -0.018431
772.208700 0.012896
772.444000 0.016697
772.679300 -0.011857
772.914600 0.007853
773.149900 -0.014142
773.385200 -0.014365
773.620500 -0.011955
773.855800 0.019223
774.091100 -0.007122
774.326500 -0.026951
774.561800 0.007038
774.797200 0.059228
775.032600 0.032852
775.267900 -0.022555
775.503300 0.005553
775.738700 -0.007917
775.974100 0.025016
776.209500 0.021146
776.445000 0.036880
776.680400 0.008535
776.915800 0.001575
777.151300 -0.006601
777.386800 0.001108
777.622200 -0.030481
777.857700 -0.000216
778.093200 0.035672
778.328700 -0.006434
778.564200 -0.005272
778.799700 -0.007484
779.035200 -0.021691
779.270700 -0.015419
779.506300 0.002373
779.741800 -0.018083
779.977400 -0.000688
780.213000 -0.001300
780.448500 0.021150
780.684100 0.014317
780.919700 -0.003635
781.155300 0.024043
781.390900 0.021869
781.626500 0.015422
781.862200 0.013688
782.097800 0.043780
782.333500 -0.002690
782.569100 0.033606
782.804800 0.001916
783.040500 -0.016531
783.276100 -0.002610
783.511800 0.002276
783.747500 -0.015094
783.983200 0.008211
784.219000 0.024167
784.454700 0.003934
784.690400 0.035101
784.926200 -0.009119
785.161900 0.017149
785.397700 -0.004407
785.633500 0.003206
785.869200 0.014287
786.105000 0.027283
786.340800 0.004899
786.576600 0.033552
786.812400 0.019046
787.048300 0.019857
787.284100 0.013745
787.519900 0.013867
787.755800 0.006276
787.991700 0.018528
788.227500 0.003514
788.463400 0.012074
788.699300 0.001408
788.935200 0.012385
789.171100 0.008820
789.407000 0.010658
789.642900 0.004970
789.878900 0.012704
790.114800 -0.018416
790.350700 0.004561
790.586700 0.002396
790.822700 -0.001291
791.058600 0.000569
791.294600 0.028143
791.530600 -0.011100
791.766600 -0.004792
792.002600 0.027898
792.238700 0.003221
792.474700 0.042421
792.710700 0.022331
792.946800 -0.007028
793.182800 -0.021376
793.418900 -0.001208
793.655000 0.023709
793.891000 0.015333
794.127100 0.018047
794.363200 0.012596
794.599300 -0.004265
794.835500 0.002684
795.071600 0.035588
795.307700 0.014500
795.543900 0.008315
795.780000 0.012781
796.016200 0.010873
796.252300 0.023891
796.488500 0.032429
796.724700 0.008653
796.960900 0.009567
797.197100 0.019620
797.433300 0.029883
797.669500 -0.006897
797.905800 -0.007080
798.142000 0.008603
798.378300 -0.008975
798.614500 -0.044069
798.850800 0.010434
799.087100 0.009418
799.323300 0.026717
799.559600 -0.007788
799.795900 0.060588
800.032200 0.032544
800.268600 0.005631
800.504900 -0.021321
800.741200 -0.003492
800.977600 0.019551
801.213900 0.024995
801.450300 0.021997
801.686700 0.005048
801.923000 -0.006686
802.159400 0.002092
802.395800 -0.036811
802.632200 0.028168
802.868600 -0.064199
803.105100 -0.021277
803.341500 -0.058996
803.577900 -0.007788
803.814400 0.025386
804.050800 -0.000174
804.287300 0.055921
804.523800 -0.010340
804.760300 -0.012409
804.996800 -0.037043
805.233300 0.014766
805.469800 0.029274
805.706300 -0.041273
805.942800 0.011144
806.179400 -0.033583
806.415900 -0.012015
806.652500 0.015067
806.889000 0.026805
807.125600 0.035582
807.362200 0.003439
807.598800 0.031597
807.835400 0.003410
808.072000 0.009624
808.308600 0.010043
808.545200 -0.016057
808.781800 -0.015257
809.018500 0.004479
809.255100 -0.011228
809.491800 -0.052373
809.728400 -0.012506
809.965100 0.012133
810.201800 -0.005826
810.438500 -0.050958
810.675200 -0.030962
810.911900 -0.008951
811.148600 0.019936
811.385300 0.025571
811.622100 0.008703
811.858800 -0.033420
812.095600 -0.011115
812.332300 0.040892
812.569100 -0.025191
812.805900 0.026704
813.042700 -0.057879
813.279500 -0.044044
813.516300 -0.043106
813.753100 -0.034740
813.989900 0.046524
814.226700 0.022696
814.463600 0.008283
814.700400 0.053702
814.937300 0.004555
815.174200 0.012929
815.411000 -0.020251
815.647900 -0.063929
815.884800 -0.004531
816.121700 -0.023271
816.358600 0.015656
816.595500 0.035533
816.832400 -0.029010
817.069400 -0.023956
817.306300 0.019059
817.543300 -0.019372
817.780200 -0.033387
818.017200 0.006253
818.254200 0.021771
818.491200 -0.027535
818.728200 0.005679
818.965200 -0.046891
819.202200 0.044545
819.439200 0.002978
819.676200 -0.099350
819.913300 -0.034444
820.150300 -0.032381
820.387400 0.010062
820.624400 0.051119
820.861500 0.013002
821.098600 0.013686
821.335700 0.049940
821.572700 -0.009651
821.809900 -0.006747
822.047000 0.033144
822.284100 -0.028796
822.521200 0.014616
822.758400 0.031536
822.995500 0.026333
823.232700 0.089094
823.469800 0.047385
823.707000 -0.017686
823.944200 -0.004569
824.181400 0.046391
824.418600 0.019646
824.655800 -0.041321
824.893000 0.057227
825.130200 -0.033312
825.367500 -0.030321
825.604700 -0.000502
825.841900 -0.052684
826.079200 0.115639
826.316500 0.012805
826.553700 -0.009163
826.791000 0.036791
827.028300 0.009794
827.265600 0.035818
827.502900 0.015581
827.740200 -0.008294
827.977600 0.003702
828.214900 0.042895
828.452200 0.041565
828.689600 0.034645
828.927000 -0.009916
829.164300 0.000180
829.401700 -0.005381
829.639100 0.012884
829.876500 -0.073391
830.113900 0.040361
830.351300 -0.012500
830.588700 0.062568
830.826100 -0.005623
831.063600 -0.082293
831.301000 0.021901
831.538500 0.006258
831.775900 0.048570
832.013400 -0.044841
832.250900 -0.103441
832.488400 0.075323
832.725900 -0.078924
832.963400 0.020387
833.200900 0.072322
833.438400 -0.095783
833.675900 0.075752
833.913500 0.017114
834.151000 0.090403
834.388600 0.056810
834.626100 0.013579
834.863700 0.031013
835.101300 -0.059695
835.338900 0.016492
835.576500 0.020876
835.814100 -0.041859
836.051700 -0.007343
836.289300 0.128633
836.526900 -0.021497
836.764600 0.048995
837.002200 0.089139
837.239900 0.049400
837.477500 -0.013758
837.715200 -0.144248
837.952900 -0.033927
838.190600 0.048845
838.428300 0.005611
838.666000 0.034922
838.903700 -0.011991
839.141400 -0.005689
839.379100 0.025552
839.616900 -0.074001
839.854600 -0.031764
840.092400 -0.034428
840.330200 0.057227
840.567900 0.056133
840.805700 -0.021995
841.043500 0.008657
841.281300 0.039523
841.519100 0.017065
841.756900 -0.102785
841.994700 -0.085674
842.232600 0.096895
842.470400 0.036128
842.708200 -0.013788
842.946100 -0.019087
843.184000 -0.155544
843.421800 0.059272
843.659700 0.018974
843.897600 -0.052696
844.135500 0.008225
844.373400 -0.083797
844.611300 0.089685
844.849200 0.067128
845.087200 0.017631
845.325100 0.175444
845.563100 0.039210
845.801000 0.018468
846.039000 -0.049247
846.277000 0.123097
846.514900 0.188242
846.752900 -0.142125
846.990900 0.014253
847.228900 -0.080017
847.466900 0.127299
847.705000 -0.002653
847.943000 -0.078465
848.181000 0.095582
848.419100 0.197197
848.657100 -0.036755
848.895200 -0.041948
849.133300 0.096930
849.371300 -0.013925
849.609400 0.081532
849.847500 0.010806
850.085600 -0.012009
850.323700 0.041458
850.561900 -0.066838
850.800000 0.087354
851.038100 0.077417
851.276300 -0.104577
851.514400 -0.108389
851.752600 0.034172
851.990800 -0.030591
852.228900 -0.072741
852.467100 -0.043493
852.705300 -0.018073
852.943500 -0.017326
853.181700 0.020442
853.420000 -0.053847
853.658200 -0.030284
853.896400 -0.031528
854.134700 -0.036069
854.372900 0.019316
854.611200 0.001327
854.849500 -0.002217
855.087700 0.029372
855.326000 0.076847
855.564300 -0.000861
855.802600 0.061717
856.040900 -0.018304
856.279200 0.036259
856.517600 0.046538
856.755900 0.014601
856.994200 -0.003356
857.232600 0.007477
857.471000 -0.035955
857.709300 0.018357
857.947700 0.017507
858.186100 0.017067
858.424500 -0.030389
858.662900 0.037211
858.901300 0.040245
859.139700 0.003295
859.378100 -0.010569
859.616600 0.148898
859.855000 -0.030925
860.093500 -0.015277
860.331900 0.038535
860.570400 -0.010631
860.808900 0.089228
861.047300 0.003053
861.285800 -0.015092
861.524300 0.126215
861.762800 0.118653
862.001300 0.150165
862.239900 0.118842
862.478400 -0.044168
862.716900 0.002096
862.955500 -0.005985
863.194000 -0.078093
863.432600 -0.057726
863.671200 0.022954
863.909800 -0.003657
864.148300 -0.102227
864.386900 -0.060456
864.625500 0.034834
864.864200 -0.077596
865.102800 0.056868
865.341400 -0.046593
865.580000 -0.083166
865.818700 0.004756
866.057300 0.021108
866.296000 -0.137244
866.534700 0.059431
866.773300 -0.018570
867.012000 0.007451
867.250700 0.001529
867.489400 -0.142811
867.728100 -0.050018
867.966900 0.122160
868.205600 -0.107147
868.444300 0.008275
868.683100 -0.055337
868.921800 -0.019087
869.160600 -0.052787
869.399300 -0.007476
869.638100 -0.069568
869.876900 0.011295
870.115700 -0.014194
870.354500 -0.036239
870.593300 -0.032379
870.832100 -0.038432
871.070900 -0.079366
871.309700 0.005957
871.548600 0.151988
871.787400 -0.063981
872.026300 -0.095673
872.265100 -0.057489
872.504000 0.017194
872.742900 0.085703
872.981800 0.016067
873.220700 -0.078540
873.459600 0.046228
873.698500 -0.001683
873.937400 0.074911
874.176300 -0.010807
874.415300 -0.000910
874.654200 0.018270
874.893200 0.058616
875.132100 -0.121562
875.371100 -0.006129
875.610100 0.085522
875.849100 -0.013668
876.088000 0.026037
876.327000 0.078987
876.566100 0.071787
876.805100 -0.021393
877.044100 -0.128898
877.283100 -0.007669
877.522200 -0.168012
877.761200 -0.051459
878.000300 -0.039969
878.239300 0.020627
878.478400 0.001768
878.717500 0.050379
878.956600 -0.029551
879.195700 0.117780
879.434800 0.015357
879.673900 -0.061262
879.913000 0.011729
880.152100 0.052331
880.391300 -0.065263
880.630400 0.013984
880.869600 -0.008751
881.108700 -0.051393
881.347900 -0.009341
881.587100 -0.085003
881.826200 -0.005721
882.065400 0.023593
882.304600 -0.088895
882.543800 0.069858
882.783100 0.075664
883.022300 0.024723
883.261500 0.020841
883.500700 -0.041287
883.740000 0.019592
883.979200 0.042328
884.218500 0.026477
884.457800 -0.021319
884.697100 -0.049646
884.936300 -0.011798
885.175600 0.001210
885.414900 -0.034136
885.654200 0.009896
885.893600 0.063128
886.132900 0.070258
886.372200 0.018581
886.611600 -0.080576
886.850900 0.055675
887.090300 -0.017737
887.329600 0.184803
887.569000 0.032038
887.808400 -0.012316
888.047800 -0.008145
888.287200 -0.014192
888.526600 -0.030348
888.766000 -0.092409
889.005400 0.006785
889.244800 -0.065961
889.484300 -0.008107
889.723700 0.049944
889.963200 0.054352
890.202600 0.023134
890.442100 -0.017153
890.681600 -0.065364
890.921100 0.037083
891.160600 -0.025124
891.400100 0.064546
891.639600 -0.002478
891.879100 0.055676
892.118600 0.038623
892.358100 -0.008839
892.597700 0.008218
892.837200 0.152621
893.076800 -0.036500
893.316300 0.057864
893.555900 0.028322
893.795500 0.128524
894.035100 -0.060908
894.274700 -0.004879
894.514300 0.088990
894.753900 -0.115675
894.993500 0.019707
895.233100 -0.035496
895.472700 -0.109277
895.712400 -0.100805
895.952000 -0.028809
896.191700 0.062068
896.431400 -0.045370
896.671000 0.174664
896.910700 -0.030739
897.150400 0.049347
897.390100 0.041899
897.629800 -0.025396
897.869500 -0.020128
898.109200 -0.035529
898.348900 -0.005241
898.588700 0.054915
898.828400 0.023527
899.068200 -0.093890
899.307900 -0.004490
899.547700 0.132340
899.787500 0.021316
900.027200 -0.195390
900.267000 0.012697
900.506800 0.001720
900.746600 -0.023176
900.986400 0.037523
901.226300 0.023745
901.466100 -0.154204
901.705900 0.099774
901.945800 -0.057668
902.185600 -0.019163
902.425500 -0.155430
902.665400 -0.006711
902.905200 -0.058594
903.145100 -0.078680
903.385000 -0.042331
903.624900 0.057966
903.864800 0.043291
904.104700 0.087467
904.344600 -0.079646
904.584600 -0.165224
904.824500 0.046388
905.064400 -0.020207
905.304400 -0.126070
905.544400 -0.084179
905.784300 0.103178
906.024300 -0.090858
906.264300 -0.044106
906.504300 -0.061546
906.744300 0.005333
906.984300 -0.039094
907.224300 0.056683
907.464300 0.128386
907.704300 0.060376
907.944400 -0.024638
908.184400 -0.040563
908.424500 0.120562
908.664500 -0.087711
908.904600 -0.053787
909.144700 0.071502
909.384700 0.147957
909.624800 -0.156303
909.864900 -0.026043
910.105000 0.043167
910.345200 -0.222201
910.585300 -0.020254
910.825400 0.209206
911.065500 -0.015068
911.305700 -0.016649
911.545800 -0.001234
911.786000 -0.074800
912.026200 -0.115226
912.266300 0.062537
912.506500 -0.088098
912.746700 0.047987
912.986900 -0.016378
913.227100 -0.053947
913.467300 0.005661
913.707500 -0.175390
913.947800 -0.010209
914.188000 0.230844
914.428300 -0.012570
914.668500 -0.096931
914.908800 -0.020968
915.149000 0.011158
915.389300 0.095136
915.629600 0.054494
915.869900 -0.048089
916.110200 -0.236089
916.350500 0.033227
916.590800 0.121198
916.831100 0.078255
917.071400 -0.083841
917.311800 -0.128094
917.552100 0.021152
917.792500 -0.096382
918.032800 0.024513
918.273200 0.103717
918.513600 -0.049702
918.753900 0.043617
918.994300 -0.025823
919.234700 0.018409
919.475100 0.212462
919.715500 0.014345
919.956000 0.061819
920.196400 -0.053051
920.436800 -0.167142
920.677300 0.002801
920.917700 -0.012475
921.158200 0.056188
921.398600 -0.116395
921.639100 0.062259
921.879600 -0.286586
922.120100 0.064085
922.360600 0.063192
922.601100 -0.073229
922.841600 0.091260
923.082100 -0.086890
923.322600 0.170771
923.563100 -0.204778
923.803700 0.028602
924.044200 -0.051547
924.284800 0.099410
924.525400 0.068082
924.765900 0.079076
925.006500 -0.136387
925.247100 0.022855
925.487700 -0.071733
925.728300 -0.036293
925.968900 -0.146939
926.209500 0.201908
926.450100 0.032284
926.690800 0.292252
926.931400 -0.190140
927.172000 -0.009585
927.412700 0.119228
927.653300 -0.075145
927.894000 -0.067891
928.134700 -0.083265
928.375400 -0.157309
928.616100 0.130800
928.856800 -0.043665
929.097500 0.127266
929.338200 -0.155836
929.578900 -0.120128
929.819600 0.364366
930.060400 -0.130460
930.301100 0.214910
930.541900 0.080827
930.782600 -0.006983
931.023400 0.365838
931.264200 0.085255
931.504900 0.186024
931.745700 -0.125141
931.986500 -0.042449
932.227300 -0.084067
932.468100 0.247893
932.708900 -0.044623
932.949800 0.196035
933.190600 0.002110
933.431400 0.000000
933.672300 0.022222
933.913100 -0.122588
934.154000 -0.150207
934.394900 -0.053466
934.635800 -0.228819
934.876600 -0.072501
935.117500 0.134408
935.358400 -0.077855
935.599300 0.013298
935.840300 -0.157448
936.081200 -0.009594
936.322100 -0.311157
936.563000 0.050489
936.804000 -0.025207
937.044900 -0.073667
937.285900 -0.153157
937.526900 -0.031004
937.767800 0.317159
938.008800 0.350360
938.249800 0.056508
938.490800 -0.235165
938.731800 -0.093807
938.972800 0.192422
939.213800 -0.023937
939.454900 0.194858
939.695900 -0.040656
939.936900 0.519598
940.178000 0.089335
940.419000 -0.251274
940.660100 -0.167876
940.901200 -0.065926
941.142200 -0.523778
941.383300 0.243683
941.624400 0.176857
941.865500 0.339157
942.106600 0.430968
942.347700 -0.440640
942.588900 0.097517
942.830000 1.063343
943.071100 -0.023502
943.312300 0.255581
943.553400 0.050300
943.794600 -0.156027
944.035700 -0.063989
944.276900 -0.321183
944.518100 -0.086173
944.759300 0.144158
945.000500 -0.626560
945.241700 0.023296
945.482900 -0.099958
945.724100 0.236114
945.965300 0.131616
946.206600 -0.191477
946.447800 0.280145
946.689100 0.238832
946.930300 -0.978617
947.171600 0.534132
947.412800 0.159019
947.654100 0.025813
947.895400 0.260122
948.136700 0.343561
948.378000 -0.219341
948.619300 -0.090776
948.860600 0.150345
949.101900 -0.223309
949.343300 0.173913
949.584600 0.082268
949.825900 -0.162813
950.067300 0.142392
950.308600 2.975891
950.550000 0.057887
950.791400 -0.666460
951.032700 -0.423707
951.274100 0.283641
951.515500 0.251186
951.756900 0.335892
951.998300 0.024388
952.239800 0.528548
952.481200 0.067488
952.722600 -0.484405
952.964000 0.114557
953.205500 -0.038407
953.446900 0.065355
953.688400 -0.162303
953.929900 -0.014114
954.171300 -0.778151
954.412800 -0.298520
954.654300 0.163384
954.895800 -0.375086
955.137300 -0.487457
955.378800 -0.252804
955.620300 -0.530798
955.861800 0.075770
956.103400 -0.023464
956.344900 -0.235035
956.586500 0.341723
956.828000 -0.150597
957.069600 -0.200570
957.311100 -0.575312
957.552700 0.289159
957.794300 -0.312329
958.035900 -0.483146
958.277500 -0.460407
958.519100 0.373758
958.760700 0.337770
959.002300 -0.630231
959.243900 0.045103
959.485600 -0.046647
959.727200 -0.323684
959.968800 -0.273734
960.210500 -0.109830
960.452200 -0.339393
960.693800 -0.429616
960.935500 -2.681241
961.177200 -0.262273
961.418900 -0.447503
961.660600 0.827732
961.902300 1.174641
962.144000 -0.609148
962.385700 0.074020
962.627400 3.115278
962.869200 -0.653397
963.110900 -0.138498
963.352700 -0.447024
963.594400 0.302620
963.836200 -0.253045
964.077900 0.619199
964.319700 -0.210973
964.561500 0.010560
964.803300 -0.003140
965.045100 0.093481
965.286900 2.791691
965.528700 -0.321014
965.770500 -0.322171
966.012300 -0.273346
966.254200 0.270553
966.496000 -0.036137
966.737900 3.206826
966.979700 0.224806
967.221600 0.171972
967.463400 -0.120565
967.705300 0.016520
967.947200 2.859739
968.189100 -0.597343
968.431000 0.204065
968.672900 -0.130664
968.914800 -0.184914
969.156700 -0.475556
969.398700 -0.404504
969.640600 -0.110513
969.882500 0.232500
970.124500 -0.446001
970.366400 0.275017
970.608400 -0.305725
970.850400 -0.202636
971.092300 0.209180
971.334300 0.014907
971.576300 -0.082451
971.818300 0.250910
972.060300 0.033168
972.302300 -0.016732
972.544300 -0.416593
972.786400 0.077882
973.028400 3.206826
973.270400 0.014537
973.512500 0.052637
973.754500 0.132006
973.996600 0.374621
974.238700 0.142910
974.480700 0.304695
974.722800 1.967314
974.964900 2.859739
975.207000 0.313915
975.449100 -0.235575
975.691200 -0.394024
975.933300 0.041454
976.175500 -3.129045
976.417600 0.186049
976.659700 1.000000
976.901900 0.131741
977.144000 0.353089
977.386200 -0.309538
977.628300 0.203850
977.870500 1.139249
978.112700 -0.391207
978.354900 -0.036270
978.597100 0.123411
978.839300 0.077781
979.081500 0.332089
979.323700 -2.839478
979.565900 -0.497966
979.808200 3.265290
980.050400 0.373862
980.292600 -0.046013
980.534900 -0.185270
980.777100 2.971276
981.019400 0.670031
981.261700 0.146511
981.504000 0.294276
981.746200 1.845098
981.988500 -0.129131
982.230800 -0.688375
982.473100 0.258069
982.715500 0.556197
982.957800 -0.478039
983.200100 0.990339
983.442400 -0.228818
983.684800 1.595221
983.927100 -0.410609
984.169500 0.159352
984.411800 -0.190875
984.654200 0.996994
984.896600 0.347986
985.139000 -1.799341
985.381400 0.049044
985.623800 0.597874
985.866200 0.513955
986.108600 -2.356026
986.351000 -0.215661
986.593400 -0.511833
986.835800 -0.072406
987.078300 -0.497981
987.320700 -0.114097
987.563200 0.019462
987.805600 -0.777315
988.048100 0.833184
988.290600 -0.666901
988.533100 0.000000
988.775600 -0.272152
989.018000 0.262798
989.260500 -0.028585
989.503100 0.000000
989.745600 -1.011917
989.988100 -2.975432
990.230600 -0.117504
990.473200 2.935507
990.715700 0.171675
990.958200 -0.400015
991.200800 -0.325702
991.443400 -3.054613
991.685900 -0.418928
991.928500 -2.752048
992.171100 -0.896251
992.413700 3.125806
992.656300 -0.195123
992.898900 -0.180208
993.141500 0.133481
993.384100 0.754431
993.626700 3.093772
993.869400 -0.381967
994.112000 -0.264596
994.354700 3.165244
994.597300 0.432500
994.840000 -2.699838
995.082600 -0.662383
995.325300 -0.916595
995.568000 -0.301313
995.810700 -0.817871
996.053400 -0.376006
996.296100 0.029410
996.538800 -0.262597
996.781500 0.331663
997.024200 -0.733971
997.267000 -0.173511
997.509700 -0.011433
997.752400 -0.269585
997.995200 -0.313586
998.237900 0.103873
998.480700 2.890421
998.723500 -2.767898
998.966200 -0.457299
999.209000 -2.955207
999.451800 -0.042604
999.694600 3.025715
999.937400 -0.144335
1000.180200 2.913284
1000.423000 0.608643
1000.665900 0.095704
1000.908700 -0.624990
1001.151500 -0.098534
1001.394400 2.745075
1001.637200 0.458321
1001.880100 0.778151
1002.123000 -0.321561
1002.365800 -0.152165
1002.608700 -0.359736
1002.851600 0.060804
1003.094500 0.015583
1003.337400 -0.660463
1003.580300 -3.203848
1003.823200 0.414973
1004.066100 -0.252146
1004.309100 2.719331
1004.552000 -0.106344
1004.794900 0.129902
1005.037900 0.448126
1005.280800 2.806180
1005.523800 0.318451
1005.766700 -0.419945
1006.009700 -0.215413
1006.252700 -2.783189
1006.495700 -0.348754
1006.738700 0.000000
1006.981700 0.562055
1007.224700 -0.172862
1007.467700 -1.189507
1007.710700 2.610660
1007.953800 0.052706
1008.196800 -0.521282
1008.439800 0.412157
1008.682900 -0.354530
1008.925900 0.042991
1009.169000 -0.264682
1009.412100 -2.923762
1009.655100 -0.881262
1009.898200 0.078437
1010.141300 -0.468489
1010.384400 -0.196678
1010.627500 2.550228
1010.870600 0.086788
1011.113700 -0.266401
1011.356800 -0.265802
1011.600000 1.591065
1011.843100 -0.029302
1012.086300 0.000000
1012.329400 -0.122378
1012.572600 -2.965202
1012.815700 -0.228512
1013.058900 -3.327563
1013.302100 0.362417
1013.545200 0.439808
1013.788400 3.108227
1014.031600 -2.797960
1014.274800 0.340382
1014.518000 3.161967
1014.761300 -0.053933
1015.004500 -1.897627
1015.247700 0.240679
1015.490900 -3.100715
1015.734200 3.239800
1015.977400 -0.169887
1016.220700 0.000000
1016.464000 2.853090
1016.707200 -0.123536
1016.950500 -0.922632
1017.193800 -0.307160
1017.437100 2.562293
1017.680400 0.267756
1017.923700 0.401860
1018.167000 0.109836
1018.410300 -0.386337
1018.653600 1.345612
1018.896900 1.817483
1019.140300 0.026734
1019.383600 0.169997
1019.627000 0.182954
1019.870300 2.465383
1020.113700 -0.112891
1020.357100 2.575188
1020.600400 -0.288691
1020.843800 0.060469
1021.087200 0.645656
1021.330600 -2.901458
1021.574000 0.578016
1021.817400 0.000000
1022.060800 0.000000
1022.304200 0.000000
1022.547700 -0.073429
1022.791100 -0.164726
1023.034500 0.350515
