# Wavelength	Absorbance
197.780200 -0.369697
197.984200 -0.148194
198.188200 0.408926
198.392200 -0.340283
198.596300 -0.366174
198.800300 2.318063
199.004400 2.918555
199.208500 0.339948
199.412600 -0.090766
199.616800 -0.572401
199.820900 -0.112109
200.025100 -0.025143
200.229200 -0.483050
200.433400 3.008600
200.637600 -0.508263
200.841800 2.902003
201.046100 -0.190332
201.250300 0.519453
201.454600 0.216141
201.658900 0.828436
201.863100 -0.258581
202.067400 2.760422
202.271800 -0.075020
202.476100 -0.183017
202.680500 0.329059
202.884800 0.138473
203.089200 0.714482
203.293600 2.745075
203.498000 -0.242962
203.702400 0.062302
203.906900 -0.725804
204.111300 -3.226858
204.315800 -0.476309
204.520300 3.062958
204.724800 -0.581081
204.929300 -0.819702
205.133800 0.355784
205.338400 0.723291
205.543000 1.379042
205.747500 2.682145
205.952100 0.293380
206.156700 -0.158496
206.361400 -2.891537
206.566000 -0.654464
206.770600 0.145774
206.975300 -0.807281
207.180000 -1.799341
207.384700 2.587711
207.589400 0.000000
207.794100 -0.164432
207.998900 -0.784667
208.203600 -0.261682
208.408400 -0.138092
208.613200 -0.274270
208.818000 0.331191
209.022800 -0.741273
209.227600 -0.412286
209.432500 -0.402745
209.637300 2.752816
209.842200 -0.231873
210.047100 2.798651
210.252000 2.053078
210.456900 -0.371219
210.661800 0.088299
210.866800 -0.057736
211.071800 0.526995
211.276700 -0.313466
211.481700 0.091958
211.686700 0.409741
211.891800 -0.334241
212.096800 0.389316
212.301800 0.061761
212.506900 0.178779
212.712000 0.123687
212.917100 0.249534
213.122200 2.866287
213.327300 0.435562
213.532500 -2.274158
213.737600 -0.371937
213.942800 -0.775558
214.148000 -0.390985
214.353200 -2.967080
214.558400 2.956168
214.763600 -0.007943
214.968900 -0.405155
215.174100 0.551819
215.379400 -2.644439
215.584700 -0.530169
215.790000 0.336757
215.995300 0.293862
216.200700 -0.249962
216.406000 -0.102748
216.611400 -0.866677
216.816800 2.833784
217.022200 0.043684
217.227600 0.109551
217.433000 0.313842
217.638400 0.469783
217.843900 -0.415572
218.049400 0.000000
218.254800 0.100149
218.460300 -0.078471
218.665900 0.283584
218.871400 3.234517
219.076900 -0.104132
219.282500 -0.243716
219.488100 0.121963
219.693600 2.783904
219.899200 -0.000703
220.104900 0.454405
220.310500 -0.964836
220.516100 0.000000
220.721800 -0.302775
220.927500 0.015003
221.133200 -0.341035
221.338900 2.902003
221.544600 -0.261948
221.750300 0.027308
221.956100 -0.360933
222.161800 1.059703
222.367600 -0.053796
222.573400 -0.701725
222.779200 -2.361728
222.985000 -2.644439
223.190900 0.149983
223.396700 2.621176
223.602600 -0.423685
223.808500 2.736397
224.014400 -0.289629
224.220300 2.935507
224.426200 2.719331
224.632200 0.563188
224.838100 0.090392
225.044100 0.075721
225.250100 -0.480776
225.456100 -0.545719
225.662100 -0.334622
225.868100 -0.920948
226.074200 -0.372294
226.280200 0.000000
226.486300 -0.296372
226.692400 -3.116276
226.898500 0.078975
227.104600 -0.519781
227.310700 -0.024786
227.516900 -0.080559
227.723000 -0.867223
227.929200 0.784506
228.135400 0.274787
228.341600 -0.546578
228.547800 0.161283
228.754100 -0.244327
228.960300 2.245513
229.166600 -2.436163
229.372900 0.223103
229.579100 0.059798
229.785500 -0.690754
229.991800 -2.452006
230.198100 -0.560893
230.404500 -0.878197
230.610800 -0.009789
230.817200 -2.828660
231.023600 0.152434
231.230000 2.683047
231.436400 0.529039
231.642900 2.718502
231.849300 -0.324585
232.055800 -1.107675
232.262300 0.240312
232.468800 -1.294297
232.675300 -0.052780
232.881800 0.997823
233.088400 -0.134594
233.294900 -0.606018
233.501500 -0.580442
233.708100 0.000000
233.914700 2.710963
234.121300 0.000000
234.327900 -0.515776
234.534600 -0.600930
234.741300 0.629257
234.947900 -0.143273
235.154600 3.406199
235.361300 -0.093358
235.568000 -0.000413
235.774800 -0.547561
235.981500 0.063982
236.188300 0.000000
236.395100 1.080487
236.601800 -3.116276
236.808700 0.359973
237.015500 0.561747
237.222300 0.189056
237.429200 0.687798
237.636000 0.029289
237.842900 -1.115821
238.049800 -0.349789
238.256700 -0.441259
238.463600 0.032329
238.670600 -0.394489
238.877500 0.282297
239.084500 -2.684845
239.291500 0.249534
239.498500 -0.492475
239.705500 -0.094535
239.912500 -1.298229
240.119500 -1.340808
240.326600 -0.978460
240.533700 -2.925312
240.740700 -0.442907
240.947800 -0.324791
241.154900 3.059185
241.362100 -0.084898
241.569200 -0.334622
241.776400 -0.211188
241.983500 -0.272239
242.190700 0.193146
242.397900 -3.101747
242.605100 -0.827482
242.812400 2.587711
243.019600 0.119095
243.226900 2.710117
243.434100 -0.202992
243.641400 0.183728
243.848700 0.109747
244.056000 -2.498311
244.263400 -0.539912
244.470700 0.328437
244.678100 -0.026477
244.885400 -0.197859
245.092800 0.104653
245.300200 -0.521734
245.507600 0.438470
245.715100 0.672901
245.922500 0.211877
246.130000 -1.833635
246.337500 -0.084789
246.544900 2.396199
246.752400 0.314806
246.960000 0.093362
247.167500 0.717063
247.375000 -2.399674
247.582600 0.058636
247.790200 -1.159653
247.997800 -0.014095
248.205400 0.258174
248.413000 -0.302193
248.620600 1.125481
248.828300 0.088941
249.035900 0.245270
249.243600 0.293742
249.451300 0.009163
249.659000 3.192567
249.866700 0.045005
250.074500 -0.006146
250.282200 -0.159787
250.490000 -0.194299
250.697800 -0.321837
250.905600 -0.143242
251.113400 2.929930
251.321200 -0.105588
251.529000 -0.905743
251.736900 -0.015588
251.944700 0.634006
252.152600 0.068175
252.360500 -0.553282
252.568400 -0.350922
252.776300 -0.615740
252.984300 -0.296929
253.192200 2.985426
253.400200 0.120756
253.608200 -0.701798
253.816200 0.095157
254.024200 0.169447
254.232200 -0.427011
254.440200 -3.181272
254.648300 -0.044870
254.856400 -0.454678
255.064400 -0.502093
255.272500 3.097604
255.480600 3.104828
255.688800 0.000000
255.896900 -0.064276
256.105100 0.381792
256.313200 2.752816
256.521400 -0.365755
256.729600 0.048907
256.937800 0.115292
257.146000 -0.356395
257.354300 -2.096910
257.562500 1.925366
257.770800 -3.039811
257.979100 -0.215094
258.187400 -0.206026
258.395700 -0.018962
258.604000 1.017595
258.812400 -0.120732
259.020700 -0.376996
259.229100 0.595461
259.437500 0.449552
259.645900 0.460395
259.854300 2.878522
260.062700 0.245812
260.271100 -0.002073
260.479600 0.049551
260.688100 -0.404787
260.896500 -0.071018
261.105000 -0.574737
261.313500 -0.535070
261.522100 3.142702
261.730600 1.153569
261.939200 0.909176
262.147700 2.989895
262.356300 2.745075
262.564900 0.262401
262.773500 -0.187060
262.982200 0.495091
263.190800 0.000000
263.399500 0.303736
263.608100 0.025338
263.816800 -0.140303
264.025500 -0.130140
264.234200 -0.788581
264.442900 2.053078
264.651700 0.394313
264.860400 -0.656765
265.069200 -0.289886
265.278000 2.990339
265.486800 2.975891
265.695600 2.450249
265.904400 -0.381789
266.113300 -0.422545
266.322100 0.263304
266.531000 -0.821809
266.739900 -0.892772
266.948800 0.016903
267.157700 2.884795
267.366600 1.453318
267.575500 -0.448878
267.784500 -0.480776
267.993500 0.139844
268.202400 -0.123660
268.411400 -0.140962
268.620500 1.159116
268.829500 -0.422958
269.038500 -0.646264
269.247600 -0.057901
269.456600 -0.568892
269.665700 0.008544
269.874800 0.222566
270.083900 0.175729
270.293100 -2.967080
270.502200 -0.102092
270.711400 -0.687143
270.920500 -0.404011
271.129700 2.985426
271.338900 0.075800
271.548100 2.691965
271.757300 3.030195
271.966600 -0.034891
272.175800 -0.000458
272.385100 0.394593
272.594400 0.609084
272.803700 -0.115118
273.013000 -0.387898
273.222300 0.017949
273.431600 0.587753
273.641000 0.262840
273.850400 2.701568
274.059700 -0.076468
274.269100 0.847787
274.478500 0.514689
274.688000 0.280465
274.897400 2.866287
275.106900 -1.334247
275.316300 0.270048
275.525800 1.147993
275.735300 0.000000
275.944800 0.029661
276.154300 -0.122572
276.363900 0.145370
276.573400 2.840106
276.783000 -0.098411
276.992600 0.046926
277.202200 -0.069001
277.411800 -0.315379
277.621400 -0.229587
277.831000 0.798449
278.040700 0.054338
278.250300 2.820201
278.460000 0.106847
278.669700 -0.206781
278.879400 -0.553354
279.089100 2.691965
279.298900 -0.313108
279.508600 0.928805
279.718400 0.873096
279.928100 -2.320146
280.137900 0.347906
280.347700 2.632457
280.557600 0.276101
280.767400 -0.123547
280.977200 -0.141523
281.187100 0.000000
281.397000 0.512413
281.606900 -2.814248
281.816800 0.487646
282.026700 2.357935
282.236600 -0.166744
282.446600 -0.042800
282.656500 -3.301681
282.866500 -0.310056
283.076500 -1.042478
283.286500 0.537786
283.496500 0.933690
283.706500 0.684695
283.916600 -0.110521
284.126600 -2.234445
284.336700 2.966142
284.546800 2.587711
284.756900 -0.395230
284.967000 0.067866
285.177100 0.272854
285.387300 -2.526339
285.597400 -0.005395
285.807600 -1.115933
286.017800 0.101121
286.228000 -3.263399
286.438200 3.171434
286.648400 0.186168
286.858700 0.339978
287.068900 0.841344
287.279200 0.320616
287.489500 2.414973
287.699800 -0.233204
287.910100 -0.621862
288.120400 0.548964
288.330800 -0.948684
288.541100 0.582839
288.751500 -0.876987
288.961900 -0.153499
289.172300 -2.737987
289.382700 0.195147
289.593100 -0.063524
289.803500 -3.064083
290.014000 2.980458
290.224500 3.059185
290.434900 0.000000
290.645400 0.182931
290.855900 2.653213
291.066500 -0.028804
291.277000 -0.135376
291.487500 -0.208170
291.698100 0.083793
291.908700 -0.618672
292.119300 0.394543
292.329900 3.042969
292.540500 2.728354
292.751100 -0.130903
292.961800 0.000000
293.172400 0.433447
293.383100 -2.320146
293.593800 -0.273587
293.804500 -0.030795
294.015200 0.100789
294.226000 -2.399674
294.436700 -0.214339
294.647500 -0.314984
294.858200 -0.004727
295.069000 -0.222689
295.279800 -0.531947
295.490600 -3.278067
295.701500 -0.122087
295.912300 -0.018962
296.123200 0.225299
296.334000 -0.344752
296.544900 0.340000
296.755800 0.450777
296.966700 0.004689
297.177700 0.175845
297.388600 0.231712
297.599500 -0.929419
297.810500 -0.091014
298.021500 0.109409
298.232500 1.363248
298.443500 -1.446524
298.654500 0.083065
298.865600 -0.084512
299.076600 -0.433928
299.287700 -2.946943
299.498800 1.104214
299.709900 -0.482709
299.921000 0.203513
300.132100 3.038620
300.343200 0.908718
300.554400 -0.177566
300.765500 -0.082313
300.976700 0.000000
301.187900 0.881771
301.399100 2.813581
301.610300 3.129368
301.821500 1.762679
302.032800 -0.143731
302.244100 -0.260617
302.455300 -0.213089
302.666600 3.063333
302.877900 -0.061460
303.089200 -0.140376
303.300600 0.040991
303.511900 2.970812
303.723300 2.924279
303.934600 -0.251925
304.146000 -1.925017
304.357400 2.432969
304.568800 -0.099988
304.780300 0.245345
304.991700 -0.534905
305.203100 -0.695238
305.414600 0.369722
305.626100 0.197556
305.837600 3.201124
306.049100 0.054989
306.260600 0.651479
306.472200 -0.307156
306.683700 -0.058790
306.895300 -0.541088
307.106900 0.075478
307.318400 -0.029455
307.530100 0.729082
307.741700 0.709270
307.953300 0.385293
308.165000 -2.967080
308.376600 0.362200
308.588300 0.079728
308.800000 3.034227
309.011700 0.335439
309.223400 -0.157269
309.435100 -0.464094
309.646900 -0.375796
309.858600 0.477504
310.070400 0.602706
310.282200 1.447158
310.494000 3.287130
310.705800 0.181879
310.917600 0.611112
311.129500 2.840106
311.341300 0.048227
311.553200 3.180413
311.765100 -0.059683
311.977000 0.040955
312.188900 0.066401
312.400800 0.668872
312.612700 3.012837
312.824700 0.463375
313.036600 0.388850
313.248600 0.150763
313.460600 -0.079978
313.672600 0.433096
313.884600 0.090725
314.096700 2.599883
314.308700 0.427908
314.520800 -0.018370
314.732800 0.209652
314.944900 0.266459
315.157000 0.275788
315.369200 -0.190447
315.581300 -0.018962
315.793400 -0.503034
316.005600 1.209309
316.217700 -0.138008
316.429900 1.163447
316.642100 0.567230
316.854300 -0.116547
317.066600 3.463445
317.278800 0.772701
317.491100 -0.104815
317.703300 0.783591
317.915600 3.296446
318.127900 1.653368
318.340200 0.018061
318.552500 0.352183
318.764900 0.259580
318.977200 3.437592
319.189600 0.094184
319.401900 0.559856
319.614300 0.222590
319.826700 0.723941
320.039200 0.959212
320.251600 3.303412
320.464000 3.336260
320.676500 0.072165
320.889000 -0.574428
321.101400 1.028742
321.313900 3.310268
321.526500 0.224322
321.739000 0.419449
321.951500 0.424849
322.164100 0.467938
322.376600 0.429443
322.589200 1.042713
322.801800 0.859420
323.014400 0.424961
323.227000 3.354876
323.439700 0.911094
323.652300 0.893800
323.865000 0.369997
324.077700 0.463637
324.290400 0.418731
324.503100 0.125242
324.715800 0.473842
324.928500 0.323950
325.141200 0.663188
325.354000 0.325368
325.566800 0.604545
325.779600 0.867348
325.992400 0.816399
326.205200 0.373784
326.418000 3.474362
326.630800 0.559066
326.843700 0.490458
327.056600 0.195924
327.269400 0.260727
327.482300 0.375743
327.695200 0.107896
327.908200 0.452253
328.121100 0.161452
328.334000 0.816138
328.547000 3.636688
328.760000 0.249362
328.973000 3.578983
329.186000 0.722326
329.399000 0.520603
329.612000 0.812579
329.825100 0.518074
330.038100 0.667066
330.251200 0.508788
330.464300 1.493945
330.677400 1.361326
330.890500 0.848114
331.103600 0.659001
331.316700 3.641970
331.529900 0.549395
331.743100 1.115531
331.956200 1.564429
332.169400 0.212536
332.382600 0.706629
332.595900 0.726920
332.809100 1.507856
333.022300 0.327263
333.235600 0.686525
333.448900 3.655235
333.662200 0.809352
333.875500 0.516496
334.088800 0.423780
334.302100 1.242210
334.515400 3.647089
334.728800 0.547399
334.942200 1.462603
335.155500 0.443520
335.368900 2.478111
335.582300 0.576795
335.795800 0.762625
336.009200 0.539161
336.222700 0.549962
336.436100 0.569012
336.649600 0.904412
336.863100 0.454639
337.076600 0.437758
337.290100 0.987040
337.503600 1.879706
337.717200 3.759290
337.930700 1.058074
338.144300 0.543242
338.357900 1.336144
338.571500 0.592471
338.785100 1.018360
338.998700 0.535068
339.212400 0.973327
339.426000 3.712144
339.639700 0.403867
339.853300 0.622267
340.067000 0.669506
340.280700 0.818651
340.494500 1.263735
340.708200 1.522827
340.921900 3.796644
341.135700 0.701989
341.349500 3.731266
341.563300 0.834884
341.777100 0.882083
341.990900 0.615264
342.204700 1.799009
342.418500 1.040572
342.632400 0.834825
342.846300 1.674811
343.060100 1.293349
343.274000 0.820285
343.487900 3.871748
343.701900 0.584866
343.915800 0.857011
344.129700 3.873611
344.343700 3.778006
344.557700 0.847018
344.771700 0.796015
344.985700 2.312442
345.199700 1.472756
345.413700 0.869103
345.627700 0.711450
345.841800 2.078129
346.055900 0.710797
346.269900 0.536004
346.484000 1.069956
346.698100 0.723939
346.912300 3.850340
347.126400 1.282762
347.340600 3.899164
347.554700 0.739937
347.768900 3.886321
347.983100 0.635847
348.197300 0.858241
348.411500 0.779124
348.625700 0.818707
348.840000 0.850562
349.054200 3.926085
349.268500 0.976081
349.482800 0.514731
349.697100 1.200649
349.911400 1.300340
350.125700 0.723332
350.340000 0.898058
350.554400 0.926190
350.768700 3.912806
350.983100 0.960692
351.197500 0.817364
351.411900 0.797199
351.626300 1.634771
351.840700 1.095564
352.055200 3.931966
352.269600 0.872399
352.484100 1.676694
352.698600 0.636733
352.913100 3.896857
353.127600 0.997713
353.342100 0.825068
353.556600 0.679583
353.771200 1.030726
353.985800 0.641962
354.200300 0.687860
354.414900 3.981093
354.629500 1.092895
354.844100 0.838027
355.058800 0.693811
355.273400 0.630330
355.488100 1.304293
355.702700 0.703646
355.917400 1.412581
356.132100 1.101184
356.346800 1.102331
356.561500 0.716563
356.776300 1.351078
356.991000 1.567729
357.205800 0.864066
357.420600 1.073859
357.635300 1.014965
357.850100 0.712407
358.065000 0.842100
358.279800 0.958120
358.494600 0.722200
358.709500 0.850315
358.924300 1.507452
359.139200 0.770872
359.354100 1.146217
359.569000 1.030726
359.783900 0.805992
359.998900 1.521301
360.213800 0.809628
360.428800 0.963714
360.643800 1.212382
360.858700 0.773708
361.073700 1.009044
361.288800 0.912130
361.503800 1.134914
361.718800 1.209866
361.933900 1.062380
362.148900 0.929795
362.364000 1.017905
362.579100 0.765741
362.794200 0.729754
363.009300 1.204782
363.224500 0.748131
363.439600 4.024280
363.654800 4.034989
363.869900 1.051356
364.085100 1.442455
364.300300 1.993648
364.515500 4.049102
364.730800 0.814627
364.946000 1.152518
365.161200 0.892079
365.376500 4.086360
365.591800 1.151715
365.807100 1.024768
366.022400 1.000305
366.237700 1.249362
366.453000 4.118562
366.668400 2.170297
366.883700 1.966724
367.099100 1.524954
367.314500 0.679087
367.529900 1.837373
367.745300 1.092249
367.960700 1.103051
368.176100 0.998600
368.391600 1.702176
368.607000 1.305645
368.822500 4.111901
369.038000 1.094031
369.253500 1.379419
369.469000 1.625410
369.684500 1.415988
369.900100 0.946125
370.115600 1.003843
370.331200 0.893185
370.546800 1.635662
370.762400 1.091455
370.978000 1.443348
371.193600 0.767491
371.409200 0.856454
371.624900 4.160709
371.840500 1.313661
372.056200 1.426270
372.271900 4.101128
372.487600 0.921785
372.703300 1.359800
372.919000 1.252810
373.134800 1.973318
373.350500 0.964843
373.566300 0.862159
373.782000 0.961777
373.997800 1.314585
374.213600 1.339277
374.429400 1.145184
374.645300 1.165096
374.861100 0.889250
375.077000 1.062723
375.292800 1.257017
375.508700 1.164188
375.724600 1.060751
375.940500 1.170351
376.156400 1.152573
376.372400 4.242367
376.588300 1.170614
376.804300 2.955966
377.020300 1.270772
377.236200 2.241293
377.452200 4.269816
377.668200 1.314676
377.884300 1.196274
378.100300 1.151518
378.316400 1.463219
378.532400 1.002684
378.748500 1.433888
378.964600 1.409362
379.180700 4.308394
379.396800 0.933477
379.612900 1.593016
379.829100 1.244310
380.045200 1.360448
380.261400 1.715018
380.477600 0.934373
380.693800 1.701810
380.910000 4.341138
381.126200 1.407505
381.342400 1.452492
381.558700 0.956388
381.774900 1.232465
381.991200 1.299567
382.207500 1.389356
382.423800 1.403043
382.640100 1.556223
382.856400 1.486423
383.072800 0.986861
383.289100 1.227844
383.505500 1.142333
383.721900 2.076284
383.938200 4.339471
384.154600 1.096881
384.371100 1.567663
384.587500 1.704353
384.803900 1.475352
385.020400 1.601161
385.236800 1.476663
385.453300 1.310225
385.669800 1.637410
385.886300 1.505832
386.102800 1.545872
386.319400 1.048301
386.535900 2.051826
386.752500 1.060201
386.969000 1.420729
387.185600 1.218797
387.402200 1.201278
387.618800 1.201641
387.835500 4.396356
388.052100 1.267886
388.268700 1.081783
388.485400 1.134416
388.702100 1.320435
388.918800 1.362571
389.135500 1.252252
389.352200 1.063523
389.568900 1.739987
389.785600 1.041966
390.002400 4.385195
390.219200 1.026858
390.435900 1.057489
390.652700 1.021614
390.869500 1.023943
391.086300 1.006055
391.303200 1.111294
391.520000 0.957294
391.736900 1.160060
391.953700 1.302849
392.170600 1.212540
392.387500 0.945617
392.604400 0.892628
392.821300 1.001234
393.038300 0.860959
393.255200 1.036467
393.472200 0.952647
393.689100 0.837762
393.906100 0.773598
394.123100 0.708277
394.340100 0.828112
394.557200 0.742482
394.774200 0.699566
394.991200 0.887176
395.208300 0.788820
395.425400 0.760691
395.642500 0.900232
395.859600 0.711235
396.076700 0.652837
396.293800 0.849805
396.510900 0.844829
396.728100 0.735727
396.945300 0.669401
397.162400 0.782815
397.379600 0.696067
397.596800 0.623063
397.814000 0.748626
398.031300 0.711137
398.248500 0.655062
398.465800 0.601316
398.683000 0.624115
398.900300 0.654000
399.117600 0.665986
399.334900 0.616284
399.552200 0.595783
399.769600 0.524000
399.986900 0.690911
400.204300 0.577428
400.421600 0.555449
400.639000 0.610939
400.856400 0.640020
401.073800 0.522753
401.291200 0.537154
401.508700 0.479732
401.726100 0.528038
401.943600 0.564330
402.161000 0.535031
402.378500 0.540369
402.596000 0.566316
402.813500 0.574923
403.031000 0.537497
403.248600 0.539899
403.466100 0.457902
403.683700 0.472093
403.901300 0.507645
404.118900 0.465901
404.336500 0.549979
404.554100 0.488350
404.771700 0.514246
404.989300 0.428076
405.207000 0.476635
405.424600 0.433405
405.642300 0.472372
405.860000 0.449813
406.077700 0.421608
406.295400 0.402539
406.513100 0.461579
406.730900 0.402219
406.948600 0.446489
407.166400 0.451783
407.384200 0.411168
407.602000 0.363738
407.819800 0.358597
408.037600 0.351832
408.255400 0.361309
408.473300 0.416657
408.691100 0.391989
408.909000 0.411512
409.126900 0.362299
409.344800 0.423322
409.562700 0.400702
409.780600 0.393121
409.998500 0.356515
410.216500 0.372535
410.434400 0.387543
410.652400 0.347218
410.870400 0.373240
411.088400 0.358521
411.306400 0.345129
411.524400 0.362301
411.742400 0.325859
411.960500 0.337940
412.178500 0.357744
412.396600 0.346861
412.614700 0.295672
412.832800 0.336946
413.050900 0.341848
413.269000 0.322724
413.487100 0.345773
413.705300 0.336230
413.923400 0.335854
414.141600 0.308117
414.359800 0.303167
414.578000 0.291109
414.796200 0.305214
415.014400 0.334192
415.232600 0.321264
415.450900 0.320828
415.669200 0.307590
415.887400 0.347250
416.105700 0.334597
416.324000 0.279711
416.542300 0.297687
416.760600 0.330701
416.979000 0.292735
417.197300 0.305602
417.415700 0.269162
417.634100 0.288796
417.852400 0.296368
418.070800 0.274745
418.289300 0.263002
418.507700 0.308502
418.726100 0.308409
418.944600 0.293166
419.163000 0.258718
419.381500 0.263535
419.600000 0.313146
419.818500 0.264759
420.037000 0.265679
420.255500 0.266514
420.474100 0.296118
420.692600 0.252644
420.911200 0.236083
421.129800 0.264583
421.348300 0.275352
421.566900 0.277572
421.785600 0.245366
422.004200 0.267939
422.222800 0.256696
422.441500 0.277574
422.660100 0.222715
422.878800 0.270263
423.097500 0.272193
423.316200 0.257347
423.534900 0.247614
423.753600 0.263163
423.972400 0.259733
424.191100 0.262294
424.409900 0.205982
424.628700 0.218379
424.847500 0.265292
425.066300 0.236432
425.285100 0.243000
425.503900 0.216425
425.722800 0.236531
425.941600 0.222016
426.160500 0.201238
426.379300 0.238126
426.598200 0.212358
426.817100 0.214816
427.036100 0.246016
427.255000 0.239477
427.473900 0.235006
427.692900 0.246508
427.911800 0.240659
428.130800 0.264360
428.349800 0.241366
428.568800 0.242433
428.787800 0.250904
429.006800 0.241738
429.225900 0.235602
429.444900 0.188692
429.664000 0.201671
429.883100 0.219579
430.102200 0.251989
430.321300 0.248141
430.540400 0.222235
430.759500 0.220027
430.978700 0.265791
431.197800 0.238947
431.417000 0.217257
431.636200 0.213709
431.855300 0.214100
432.074500 0.201253
432.293800 0.238076
432.513000 0.255095
432.732200 0.234438
432.951500 0.290302
433.170700 0.271603
433.390000 0.227503
433.609300 0.266019
433.828600 0.239208
434.047900 0.254242
434.267300 0.255858
434.486600 0.245803
434.705900 0.228961
434.925300 0.266185
435.144700 0.215768
435.364100 0.250998
435.583500 0.246859
435.802900 0.205727
436.022300 0.243046
436.241800 0.241841
436.461200 0.226464
436.680700 0.204787
436.900100 0.261539
437.119600 0.226670
437.339100 0.238292
437.558600 0.239186
437.778200 0.280036
437.997700 0.265038
438.217300 0.220541
438.436800 0.226699
438.656400 0.256346
438.876000 0.233404
439.095600 0.231626
439.315200 0.260070
439.534800 0.243563
439.754500 0.238863
439.974100 0.238023
440.193800 0.250951
440.413500 0.292984
440.633100 0.245513
440.852800 0.261268
441.072500 0.254389
441.292300 0.260376
441.512000 0.309060
441.731800 0.282925
441.951500 0.252487
442.171300 0.263981
442.391100 0.273072
442.610900 0.307681
442.830700 0.268429
443.050500 0.272542
443.270300 0.263780
443.490200 0.248666
443.710100 0.300890
443.929900 0.279356
444.149800 0.284933
444.369700 0.303652
444.589600 0.261704
444.809500 0.260143
445.029500 0.275449
445.249400 0.260728
445.469400 0.304176
445.689400 0.262297
445.909300 0.248047
446.129300 0.291559
446.349300 0.288135
446.569400 0.303957
446.789400 0.261571
447.009400 0.316859
447.229500 0.287503
447.449600 0.278766
447.669600 0.285359
447.889700 0.315400
448.109800 0.287824
448.330000 0.290318
448.550100 0.284540
448.770200 0.305933
448.990400 0.341729
449.210600 0.352741
449.430700 0.304354
449.650900 0.312872
449.871100 0.303968
450.091400 0.314522
450.311600 0.322932
450.531800 0.313772
450.752100 0.315925
450.972400 0.316786
451.192600 0.308630
451.412900 0.343828
451.633200 0.343554
451.853500 0.297907
452.073900 0.380134
452.294200 0.329216
452.514600 0.364179
452.734900 0.344641
452.955300 0.283629
453.175700 0.348073
453.396100 0.354424
453.616500 0.343390
453.836900 0.379338
454.057400 0.367608
454.277800 0.352094
454.498300 0.328910
454.718800 0.341458
454.939300 0.374038
455.159700 0.360959
455.380300 0.383251
455.600800 0.373618
455.821300 0.375457
456.041900 0.397320
456.262400 0.410893
456.483000 0.405616
456.703600 0.397906
456.924200 0.396043
457.144800 0.401926
457.365400 0.384744
457.586000 0.387757
457.806700 0.408981
458.027400 0.428091
458.248000 0.386923
458.468700 0.428487
458.689400 0.440768
458.910100 0.458735
459.130800 0.459431
459.351600 0.412619
459.572300 0.463925
459.793100 0.401165
460.013800 0.380665
460.234600 0.437757
460.455400 0.449773
460.676200 0.421944
460.897000 0.452796
461.117800 0.409665
461.338700 0.442709
461.559500 0.448789
461.780400 0.429441
462.001300 0.449969
462.222200 0.429987
462.443100 0.470964
462.664000 0.495049
462.884900 0.456479
463.105900 0.483387
463.326800 0.476042
463.547800 0.491349
463.768700 0.475825
463.989700 0.483000
464.210700 0.511255
464.431700 0.529373
464.652800 0.510227
464.873800 0.545914
465.094800 0.521426
465.315900 0.529483
465.537000 0.504184
465.758100 0.608073
465.979200 0.522527
466.200300 0.515527
466.421400 0.547363
466.642500 0.536265
466.863700 0.570366
467.084800 0.542257
467.306000 0.530428
467.527200 0.535982
467.748400 0.563613
467.969600 0.549619
468.190800 0.514986
468.412000 0.599135
468.633300 0.606431
468.854500 0.547259
469.075800 0.589847
469.297000 0.590192
469.518300 0.588123
469.739600 0.543641
469.961000 0.541660
470.182300 0.574659
470.403600 0.551169
470.625000 0.635700
470.846300 0.634141
471.067700 0.625833
471.289100 0.640512
471.510500 0.593143
471.731900 0.598342
471.953300 0.568521
472.174800 0.743899
472.396200 0.641424
472.617700 0.641096
472.839100 0.638777
473.060600 0.663633
473.282100 0.658509
473.503600 0.614950
473.725100 0.642259
473.946700 0.704549
474.168200 0.722786
474.389800 0.621654
474.611300 0.676853
474.832900 0.647972
475.054500 0.685935
475.276100 0.735892
475.497700 0.673922
475.719300 0.692697
475.941000 0.656778
476.162600 0.683383
476.384300 0.816659
476.606000 0.633507
476.827700 0.712553
477.049400 0.817133
477.271100 0.782368
477.492800 0.743904
477.714500 0.710439
477.936300 0.781111
478.158000 0.709427
478.379800 0.734032
478.601600 0.799761
478.823400 0.807468
479.045200 0.707902
479.267000 0.748023
479.488800 0.799306
479.710700 0.844120
479.932500 0.839910
480.154400 0.805757
480.376300 0.878576
480.598200 0.749304
480.820100 0.807929
481.042000 0.778237
481.263900 0.757029
481.485900 0.778335
481.707800 0.892368
481.929800 0.873584
482.151700 0.804254
482.373700 0.824074
482.595700 0.773373
482.817700 0.832913
483.039800 0.756720
483.261800 0.839580
483.483800 0.888593
483.705900 0.854102
483.928000 0.906076
484.150100 1.001519
484.372100 0.936754
484.594300 0.868625
484.816400 0.978134
485.038500 0.836616
485.260600 0.980549
485.482800 0.946035
485.705000 0.949424
485.927100 0.976860
486.149300 0.982761
486.371500 0.987156
486.593700 1.001982
486.816000 0.968180
487.038200 0.965103
487.260500 0.922071
487.482700 0.960993
487.705000 0.894302
487.927300 0.936881
488.149600 0.922066
488.371900 0.933562
488.594200 0.950729
488.816500 1.054656
489.038900 1.099723
489.261200 0.955466
489.483600 0.907134
489.706000 1.086487
489.928400 0.879771
490.150800 1.033202
490.373200 0.984949
490.595600 0.928313
490.818000 1.061419
491.040500 1.000804
491.263000 1.097120
491.485400 0.947383
491.707900 1.134705
491.930400 1.021281
492.152900 0.914544
492.375500 0.950507
492.598000 1.105123
492.820500 1.040727
493.043100 1.023989
493.265700 1.037163
493.488200 1.030676
493.710800 0.927938
493.933400 0.916134
494.156100 1.118344
494.378700 1.009680
494.601300 1.120904
494.824000 1.008054
495.046600 1.188003
495.269300 1.114157
495.492000 1.006150
495.714700 0.947290
495.937400 1.173993
496.160100 1.086418
496.382900 1.014837
496.605600 1.137303
496.828400 1.111886
497.051100 0.970171
497.273900 1.100304
497.496700 1.119968
497.719500 1.328757
497.942300 1.076087
498.165200 1.246697
498.388000 1.441231
498.610900 1.163785
498.833700 1.136170
499.056600 1.195805
499.279500 1.148434
499.502400 1.147580
499.725300 1.163097
499.948200 1.102163
500.171200 1.047334
500.394100 1.049343
500.617100 1.117932
500.840000 1.173268
501.063000 1.231856
501.286000 1.132592
501.509000 1.307752
501.732000 1.104817
501.955100 1.127139
502.178100 1.102029
502.401200 0.981355
502.624200 1.051916
502.847300 0.993109
503.070400 1.019527
503.293500 1.273300
503.516600 1.139212
503.739700 1.377256
503.962800 1.191824
504.186000 1.087450
504.409200 1.396479
504.632300 1.056199
504.855500 1.256448
505.078700 1.117040
505.301900 1.148374
505.525100 1.032915
505.748300 1.176392
505.971600 1.085605
506.194800 1.109148
506.418100 1.186945
506.641400 1.199853
506.864700 1.136367
507.088000 1.096646
507.311300 1.106134
507.534600 1.172632
507.757900 1.007646
507.981300 1.275009
508.204600 1.262303
508.428000 1.006619
508.651400 1.198178
508.874800 1.047024
509.098200 0.930883
509.321600 1.183325
509.545000 1.093670
509.768500 1.053192
509.991900 1.074100
510.215400 1.089080
510.438800 1.194202
510.662300 1.221821
510.885800 1.101022
511.109300 1.399761
511.332900 1.157817
511.556400 1.090841
511.779900 1.134525
512.003500 1.173533
512.227000 1.141602
512.450600 1.187820
512.674200 1.202667
512.897800 1.234802
513.121400 1.165863
513.345100 1.170888
513.568700 0.982232
513.792300 1.057188
514.016000 0.939953
514.239700 1.083468
514.463400 0.904796
514.687100 1.173515
514.910800 0.953037
515.134500 1.082439
515.358200 1.111946
515.581900 0.931355
515.805700 1.074166
516.029500 1.065111
516.253200 0.956051
516.477000 1.059827
516.700800 1.013893
516.924600 1.141922
517.148500 1.009409
517.372300 1.120814
517.596100 0.888126
517.820000 1.119144
518.043900 1.176276
518.267700 1.113734
518.491600 1.170542
518.715500 0.949632
518.939500 1.064441
519.163400 1.035268
519.387300 0.891282
519.611300 1.025688
519.835200 1.000827
520.059200 1.096086
520.283200 1.005277
520.507200 0.915635
520.731200 0.995518
520.955200 0.880377
521.179200 0.899932
521.403300 0.848464
521.627300 1.080348
521.851400 0.890016
522.075500 1.011062
522.299600 0.811955
522.523700 0.993308
522.747800 0.883876
522.971900 0.883800
523.196000 0.946265
523.420200 0.932289
523.644300 0.921147
523.868500 0.923013
524.092700 0.979258
524.316900 1.107572
524.541100 1.051686
524.765300 0.974477
524.989500 0.836444
525.213800 0.971011
525.438000 0.751363
525.662300 0.966872
525.886500 0.837292
526.110800 0.943917
526.335100 0.828096
526.559400 0.905227
526.783700 0.884286
527.008100 1.016763
527.232400 0.806152
527.456800 0.921303
527.681100 0.818606
527.905500 0.883031
528.129900 0.966174
528.354300 0.957353
528.578700 0.890994
528.803100 0.786085
529.027600 0.854046
529.252000 0.862925
529.476500 0.829285
529.700900 0.909371
529.925400 0.811745
530.149900 0.770388
530.374400 0.862578
530.598900 0.749355
530.823400 0.879354
531.048000 0.774290
531.272500 0.697241
531.497100 0.899867
531.721700 0.938156
531.946200 0.870145
532.170800 0.683475
532.395400 0.773722
532.620000 0.709257
532.844700 0.773827
533.069300 0.785179
533.294000 0.790153
533.518600 0.723493
533.743300 0.755209
533.968000 0.750226
534.192700 0.731207
534.417400 0.848114
534.642100 0.828972
534.866800 0.658038
535.091600 0.732793
535.316300 0.649532
535.541100 0.685690
535.765900 0.790229
535.990700 0.693391
536.215500 0.700724
536.440300 0.708084
536.665100 0.731509
536.889900 0.771134
537.114800 0.689112
537.339600 0.732839
537.564500 0.680375
537.789400 0.710994
538.014300 0.709143
538.239200 0.697761
538.464100 0.597431
538.689000 0.630055
538.913900 0.600224
539.138900 0.640073
539.363800 0.701533
539.588800 0.592571
539.813800 0.627978
540.038800 0.617942
540.263800 0.642321
540.488800 0.715513
540.713800 0.581508
540.938900 0.560209
541.163900 0.588931
541.389000 0.578884
541.614000 0.527067
541.839100 0.586398
542.064200 0.600776
542.289300 0.609454
542.514400 0.539201
542.739600 0.577052
542.964700 0.523513
543.189900 0.542139
543.415000 0.543956
543.640200 0.572526
543.865400 0.546893
544.090600 0.513652
544.315800 0.521213
544.541000 0.524764
544.766200 0.520866
544.991500 0.509040
545.216700 0.494069
545.442000 0.559929
545.667300 0.512796
545.892600 0.466669
546.117900 0.490058
546.343200 0.548545
546.568500 0.482765
546.793800 0.471481
547.019200 0.445131
547.244500 0.501341
547.469900 0.489307
547.695300 0.466617
547.920600 0.436085
548.146000 0.511149
548.371500 0.471340
548.596900 0.440871
548.822300 0.414476
549.047800 0.452004
549.273200 0.414132
549.498700 0.423305
549.724200 0.433306
549.949600 0.465357
550.175100 0.392038
550.400700 0.379101
550.626200 0.377645
550.851700 0.387200
551.077300 0.402930
551.302800 0.367224
551.528400 0.386406
551.754000 0.406110
551.979600 0.396552
552.205200 0.373624
552.430800 0.317324
552.656400 0.349748
552.882000 0.353156
553.107700 0.367283
553.333300 0.352918
553.559000 0.345484
553.784700 0.322081
554.010400 0.351709
554.236100 0.359760
554.461800 0.334540
554.687500 0.299159
554.913200 0.333417
555.139000 0.312004
555.364800 0.319207
555.590500 0.306010
555.816300 0.334199
556.042100 0.320844
556.267900 0.281863
556.493700 0.336377
556.719500 0.299259
556.945400 0.284683
557.171200 0.301152
557.397100 0.272009
557.623000 0.308531
557.848800 0.274802
558.074700 0.301604
558.300600 0.272659
558.526600 0.267744
558.752500 0.271986
558.978400 0.278215
559.204400 0.245590
559.430300 0.259324
559.656300 0.261193
559.882300 0.251325
560.108300 0.259497
560.334300 0.252909
560.560300 0.249456
560.786300 0.244411
561.012400 0.242309
561.238400 0.230779
561.464500 0.217285
561.690500 0.234936
561.916600 0.222958
562.142700 0.234583
562.368800 0.230418
562.594900 0.246332
562.821100 0.208357
563.047200 0.227485
563.273300 0.196022
563.499500 0.216587
563.725700 0.184317
563.951900 0.203536
564.178100 0.199990
564.404300 0.206685
564.630500 0.226804
564.856700 0.198488
565.082900 0.204805
565.309200 0.165369
565.535500 0.190854
565.761700 0.153876
565.988000 0.174900
566.214300 0.162930
566.440600 0.171880
566.666900 0.184580
566.893200 0.174822
567.119600 0.143783
567.345900 0.174841
567.572300 0.162360
567.798700 0.147043
568.025000 0.161048
568.251400 0.150436
568.477800 0.176094
568.704300 0.163153
568.930700 0.143907
569.157100 0.154771
569.383600 0.153529
569.610000 0.146716
569.836500 0.143563
570.063000 0.149028
570.289500 0.147467
570.516000 0.154634
570.742500 0.137003
570.969000 0.154833
571.195600 0.147527
571.422100 0.135916
571.648700 0.145705
571.875200 0.137830
572.101800 0.139590
572.328400 0.144986
572.555000 0.128477
572.781600 0.141663
573.008200 0.128807
573.234900 0.137171
573.461500 0.115582
573.688200 0.130814
573.914900 0.129310
574.141500 0.122128
574.368200 0.114281
574.594900 0.111808
574.821600 0.114032
575.048400 0.116974
575.275100 0.109598
575.501800 0.116337
575.728600 0.104380
575.955400 0.102340
576.182100 0.120483
576.408900 0.122208
576.635700 0.105519
576.862600 0.100407
577.089400 0.095158
577.316200 0.099558
577.543100 0.104792
577.769900 0.096010
577.996800 0.100707
578.223700 0.098683
578.450500 0.100716
578.677400 0.102381
578.904400 0.091968
579.131300 0.092411
579.358200 0.086794
579.585100 0.082315
579.812100 0.078861
580.039100 0.077134
580.266000 0.084261
580.493000 0.073576
580.720000 0.079881
580.947000 0.077747
581.174100 0.083495
581.401100 0.079793
581.628100 0.080605
581.855200 0.073296
582.082200 0.083329
582.309300 0.079534
582.536400 0.075642
582.763500 0.067159
582.990600 0.066787
583.217700 0.062328
583.444900 0.068789
583.672000 0.057368
583.899100 0.065996
584.126300 0.050756
584.353500 0.057271
584.580700 0.056140
584.807900 0.066424
585.035100 0.068246
585.262300 0.069414
585.489500 0.065555
585.716700 0.066639
585.944000 0.063546
586.171300 0.055219
586.398500 0.053181
586.625800 0.049743
586.853100 0.050575
587.080400 0.055501
587.307700 0.050030
587.535000 0.056317
587.762400 0.051618
587.989700 0.039178
588.217100 0.049368
588.444500 0.044395
588.671800 0.042718
588.899200 0.053548
589.126600 0.039686
589.354000 0.053280
589.581500 0.040085
589.808900 0.046013
590.036300 0.040758
590.263800 0.039104
590.491300 0.052405
590.718700 0.038759
590.946200 0.037833
591.173700 0.043027
591.401200 0.043095
591.628800 0.042458
591.856300 0.040797
592.083800 0.050755
592.311400 0.030832
592.538900 0.033805
592.766500 0.050329
592.994100 0.043777
593.221700 0.049517
593.449300 0.045610
593.676900 0.044297
593.904600 0.048380
594.132200 0.031553
594.359800 0.038037
594.587500 0.033750
594.815200 0.038194
595.042900 0.033206
595.270500 0.036786
595.498300 0.027564
595.726000 0.037843
595.953700 0.039156
596.181400 0.030816
596.409200 0.033169
596.636900 0.041126
596.864700 0.036667
597.092500 0.038005
597.320300 0.040710
597.548100 0.033931
597.775900 0.045894
598.003700 0.025273
598.231500 0.039021
598.459400 0.035588
598.687200 0.047483
598.915100 0.039597
599.143000 0.034225
599.370900 0.038075
599.598800 0.037269
599.826700 0.035091
600.054600 0.040277
600.282500 0.036500
600.510500 0.031927
600.738400 0.018853
600.966400 0.029822
601.194400 0.016319
601.422300 0.012568
601.650300 0.021854
601.878300 0.020802
602.106400 0.031865
602.334400 0.036078
602.562400 0.023369
602.790500 0.027070
603.018500 0.025238
603.246600 0.022726
603.474700 0.031211
603.702800 0.020041
603.930900 0.029501
604.159000 0.032962
604.387100 0.032631
604.615200 0.010699
604.843400 0.028822
605.071500 0.022118
605.299700 0.016875
605.527900 0.023114
605.756100 0.018971
605.984300 0.013410
606.212500 0.015124
606.440700 0.011840
606.668900 0.013965
606.897200 0.008983
607.125400 0.017322
607.353700 0.008546
607.581900 0.029973
607.810200 0.018383
608.038500 0.018738
608.266800 0.009859
608.495100 -0.001124
608.723500 0.004872
608.951800 0.014319
609.180100 0.008382
609.408500 0.011085
609.636900 0.007752
609.865300 0.012239
610.093600 0.015683
610.322000 0.013281
610.550500 0.018879
610.778900 0.003392
611.007300 0.012127
611.235700 0.011723
611.464200 0.018846
611.692700 0.004096
611.921100 0.012950
612.149600 0.017562
612.378100 0.022545
612.606600 0.015361
612.835100 0.013844
613.063700 0.006538
613.292200 0.012357
613.520800 0.002581
613.749300 0.022838
613.977900 0.019202
614.206500 0.010549
614.435100 0.011843
614.663700 0.025502
614.892300 0.014367
615.120900 0.011068
615.349500 0.024078
615.578200 0.013776
615.806800 0.005750
616.035500 0.009539
616.264200 0.022757
616.492900 0.008603
616.721600 0.001711
616.950300 0.005172
617.179000 -0.005541
617.407700 0.008566
617.636500 0.012078
617.865200 0.018837
618.094000 0.021300
618.322700 0.011073
618.551500 -0.007158
618.780300 -0.002934
619.009100 0.006687
619.237900 0.013475
619.466700 0.010044
619.695600 0.013512
619.924400 0.004864
620.153300 0.019160
620.382100 0.011407
620.611000 0.013172
620.839900 -0.013291
621.068800 -0.001404
621.297700 -0.002064
621.526600 0.001069
621.755600 0.008966
621.984500 0.016581
622.213500 -0.002708
622.442400 0.000226
622.671400 0.011025
622.900400 0.010335
623.129400 0.011333
623.358400 0.017613
623.587400 0.005595
623.816400 -0.007736
624.045400 0.013899
624.274500 0.012736
624.503500 -0.007174
624.732600 0.006370
624.961700 0.012194
625.190800 0.014572
625.419900 -0.016026
625.649000 0.010327
625.878100 -0.002789
626.107200 -0.008298
626.336400 -0.006721
626.565500 0.014416
626.794700 0.013419
627.023800 -0.017721
627.253000 0.011860
627.482200 0.002817
627.711400 -0.007420
627.940600 0.018170
628.169800 0.003520
628.399100 -0.005185
628.628300 -0.004821
628.857600 0.007687
629.086800 -0.005461
629.316100 0.003849
629.545400 -0.004119
629.774700 -0.000865
630.004000 0.017460
630.233300 0.023440
630.462600 0.021373
630.692000 0.002819
630.921300 -0.003396
631.150700 0.008065
631.380100 0.006863
631.609400 -0.007569
631.838800 0.019848
632.068200 -0.020754
632.297600 -0.000957
632.527100 -0.016730
632.756500 0.008518
632.985900 0.003640
633.215400 -0.003920
633.444800 -0.005473
633.674300 0.016426
633.903800 0.001583
634.133300 0.006442
634.362800 0.000149
634.592300 0.010059
634.821800 -0.016728
635.051400 -0.011064
635.280900 0.005650
635.510500 -0.022164
635.740000 0.010905
635.969600 0.004750
636.199200 -0.007994
636.428800 -0.008651
636.658400 -0.007131
636.888000 -0.010055
637.117700 -0.005638
637.347300 0.006783
637.577000 0.019855
637.806600 0.025581
638.036300 0.022281
638.266000 -0.032290
638.495700 -0.006942
638.725400 0.001743
638.955100 -0.019842
639.184800 -0.027477
639.414500 0.002391
639.644300 0.000416
639.874000 -0.015328
640.103800 -0.006222
640.333600 0.012393
640.563300 -0.030175
640.793100 -0.015956
641.022900 -0.013855
641.252800 -0.015081
641.482600 0.002304
641.712400 0.010838
641.942300 -0.010888
642.172100 0.011594
642.402000 -0.003619
642.631900 -0.030062
642.861700 -0.014884
643.091600 0.029246
643.321600 -0.007677
643.551500 -0.022116
643.781400 -0.030076
644.011300 -0.023488
644.241300 -0.011058
644.471200 -0.011067
644.701200 -0.031648
644.931200 0.001187
645.161200 0.022880
645.391200 0.002284
645.621200 0.012254
645.851200 -0.031934
646.081200 -0.016303
646.311300 -0.013139
646.541300 0.077905
646.771400 -0.019276
647.001500 0.008881
647.231600 0.024922
647.461600 0.000557
647.691800 0.004440
647.921900 -0.009860
648.152000 -0.019641
648.382100 -0.002515
648.612300 0.034668
648.842400 -0.007352
649.072600 0.008673
649.302800 0.001083
649.532900 -0.007075
649.763100 -0.012894
649.993300 -0.001718
650.223600 0.016636
650.453800 0.010086
650.684000 0.007357
650.914300 -0.026285
651.144500 0.003738
651.374800 -0.005675
651.605100 0.019834
651.835400 -0.009386
652.065700 -0.030103
652.296000 0.000252
652.526300 -0.037244
652.756600 -0.028460
652.987000 -0.044133
653.217300 -0.000182
653.447700 0.017727
653.678000 -0.005411
653.908400 -0.005978
654.138800 0.003154
654.369200 0.002522
654.599600 0.013163
654.830000 -0.003129
655.060500 0.009965
655.290900 -0.003263
655.521300 0.018726
655.751800 0.026532
655.982300 0.002910
656.212800 0.000974
656.443300 0.001458
656.673800 0.001232
656.904300 0.002850
657.134800 0.020063
657.365300 0.019536
657.595900 0.013411
657.826400 0.018136
658.057000 0.019263
658.287500 0.010185
658.518100 0.007618
658.748700 0.011829
658.979300 0.016854
659.209900 -0.012159
659.440600 -0.028561
659.671200 -0.043188
659.901800 -0.068577
660.132500 -0.033267
660.363200 -0.048032
660.593800 -0.005498
660.824500 -0.020452
661.055200 -0.040403
661.285900 -0.000724
661.516600 0.004081
661.747400 0.010752
661.978100 -0.019445
662.208800 0.032614
662.439600 0.017809
662.670400 0.023740
662.901100 0.038396
663.131900 0.041620
663.362700 -0.044112
663.593500 0.042408
663.824300 0.012406
664.055200 0.021672
664.286000 0.014434
664.516800 0.008203
664.747700 0.002324
664.978600 -0.002932
665.209400 -0.004047
665.440300 0.004722
665.671200 0.016843
665.902100 0.013855
666.133000 -0.000925
666.364000 -0.005547
666.594900 -0.020186
666.825900 -0.043768
667.056800 0.023768
667.287800 -0.030310
667.518800 -0.027376
667.749700 -0.008063
667.980700 0.007065
668.211700 -0.035797
668.442800 -0.015236
668.673800 -0.000198
668.904800 -0.037762
669.135900 -0.023740
669.366900 0.018531
669.598000 -0.052185
669.829100 -0.024545
670.060200 -0.018284
670.291300 -0.003079
670.522400 -0.013320
670.753500 0.012928
670.984600 -0.008273
671.215700 0.023290
671.446900 0.031041
671.678100 0.022741
671.909200 0.006216
672.140400 0.012341
672.371600 -0.034408
672.602800 0.015644
672.834000 -0.003765
673.065200 0.001797
673.296400 -0.008482
673.527700 -0.011927
673.758900 0.006709
673.990200 0.006969
674.221400 0.015538
674.452700 -0.017129
674.684000 0.004911
674.915300 0.020337
675.146600 -0.040775
675.377900 -0.043101
675.609300 0.018404
675.840600 -0.001513
676.071900 0.029464
676.303300 -0.006234
676.534700 -0.038228
676.766100 -0.012953
676.997400 -0.020708
677.228800 0.009612
677.460200 -0.007597
677.691700 -0.021594
677.923100 0.016519
678.154500 0.025901
678.386000 -0.017479
678.617400 -0.027490
678.848900 -0.022558
679.080400 0.000554
679.311900 -0.025311
679.543400 -0.002675
679.774900 0.007653
680.006400 0.013808
680.237900 0.004790
680.469400 0.011338
680.701000 0.023909
680.932500 -0.017321
681.164100 0.003440
681.395700 0.012085
681.627300 -0.008695
681.858900 0.011112
682.090500 0.015921
682.322100 -0.031931
682.553700 -0.009920
682.785400 -0.010968
683.017000 0.002063
683.248700 -0.005434
683.480300 0.001736
683.712000 -0.011073
683.943700 0.026664
684.175400 0.006542
684.407100 0.004135
684.638800 -0.022817
684.870500 -0.005429
685.102300 0.013400
685.334000 0.009235
685.565800 0.009925
685.797500 0.022608
686.029300 -0.011578
686.261100 0.016207
686.492900 -0.001085
686.724700 -0.013552
686.956500 -0.006581
687.188300 -0.003220
687.420200 -0.019389
687.652000 -0.013270
687.883800 -0.007901
688.115700 -0.022210
688.347600 -0.026077
688.579500 -0.015525
688.811400 -0.008284
689.043300 -0.003071
689.275200 -0.011797
689.507100 0.018705
689.739000 -0.017060
689.971000 -0.027184
690.202900 0.018572
690.434900 -0.010778
690.666900 -0.017021
690.898800 -0.041591
691.130800 0.009398
691.362800 -0.011335
691.594800 0.009666
691.826900 -0.021198
692.058900 -0.026563
692.290900 0.007364
692.523000 0.020875
692.755000 -0.007674
692.987100 -0.004867
693.219200 0.001210
693.451300 0.006499
693.683400 -0.005416
693.915500 -0.007032
694.147600 -0.006989
694.379700 -0.003297
694.611900 -0.042883
694.844000 -0.000037
695.076200 -0.019011
695.308300 0.016154
695.540500 0.020580
695.772700 -0.017683
696.004900 -0.002337
696.237100 -0.016881
696.469300 -0.032966
696.701600 -0.017125
696.933800 -0.023685
697.166000 -0.002643
697.398300 0.025767
697.630600 0.029028
697.862800 0.005091
698.095100 0.012422
698.327400 0.030977
698.559700 -0.004712
698.792000 -0.021986
699.024300 -0.010789
699.256700 -0.016824
699.489000 0.005952
699.721400 0.026692
699.953700 -0.029141
700.186100 -0.006559
700.418500 -0.000613
700.650900 -0.002550
700.883300 0.016206
701.115700 0.031272
701.348100 -0.010098
701.580600 0.009051
701.813000 -0.015528
702.045400 -0.017389
702.277900 0.024930
702.510400 -0.003485
702.742900 -0.016267
702.975300 -0.022386
703.207800 0.012808
703.440300 0.005232
703.672900 0.012654
703.905400 -0.016501
704.137900 0.000136
704.370500 -0.029431
704.603000 -0.005262
704.835600 -0.010259
705.068200 -0.029375
705.300800 0.005284
705.533400 0.027204
705.766000 0.005133
705.998600 0.014292
706.231200 0.004141
706.463800 0.019568
706.696500 -0.013713
706.929100 -0.015556
707.161800 -0.022302
707.394500 -0.012008
707.627200 -0.007884
707.859900 0.039749
708.092600 0.020163
708.325300 0.025412
708.558000 0.014150
708.790700 0.019970
709.023500 0.007639
709.256200 -0.030840
709.489000 -0.015731
709.721700 -0.023496
709.954500 -0.009787
710.187300 -0.033895
710.420100 -0.017766
710.652900 -0.040647
710.885700 -0.027507
711.118600 -0.026803
711.351400 -0.053766
711.584200 -0.016295
711.817100 0.005325
712.050000 0.011635
712.282800 -0.026380
712.515700 -0.027804
712.748600 -0.009192
712.981500 -0.017470
713.214400 0.042586
713.447400 -0.023505
713.680300 -0.017828
713.913200 -0.012551
714.146200 -0.007568
714.379100 -0.004997
714.612100 -0.007056
714.845100 0.010108
715.078100 0.002511
715.311100 -0.003722
715.544100 0.008424
715.777100 -0.014802
716.010200 -0.018830
716.243200 -0.027226
716.476200 0.000439
716.709300 -0.030033
716.942400 -0.012180
717.175400 -0.008648
717.408500 0.004236
717.641600 0.001704
717.874700 0.005919
718.107800 -0.014650
718.341000 0.009763
718.574100 -0.010769
718.807200 0.007781
719.040400 -0.009994
719.273600 -0.014561
719.506700 0.039608
719.739900 -0.013291
719.973100 -0.013058
720.206300 0.001953
720.439500 -0.024105
720.672700 -0.005042
720.906000 -0.006373
721.139200 -0.015358
721.372500 -0.001948
721.605700 0.008526
721.839000 0.012196
722.072300 -0.022487
722.305500 -0.024948
722.538800 -0.005056
722.772100 -0.030000
723.005500 -0.027520
723.238800 0.011162
723.472100 -0.034299
723.705500 -0.021854
723.938800 -0.028497
724.172200 0.010124
724.405600 -0.014135
724.638900 0.020021
724.872300 -0.000344
725.105700 0.013552
725.339100 0.021626
725.572600 -0.017386
725.806000 0.006408
726.039400 -0.020919
726.272900 0.010995
726.506300 0.009490
726.739800 0.000089
726.973300 -0.006396
727.206800 0.013916
727.440300 -0.010687
727.673800 0.034750
727.907300 0.021321
728.140800 0.009575
728.374300 -0.019941
728.607900 -0.007317
728.841400 -0.021447
729.075000 -0.026255
729.308600 0.001295
729.542100 0.004198
729.775700 0.008254
730.009300 -0.023428
730.242900 -0.011633
730.476600 0.032358
730.710200 0.021206
730.943800 0.000758
731.177500 0.016488
731.411100 0.018228
731.644800 0.025362
731.878500 -0.008369
732.112200 -0.006950
732.345800 -0.006828
732.579500 0.012954
732.813300 0.019084
733.047000 -0.002839
733.280700 0.029415
733.514500 -0.013648
733.748200 0.005457
733.982000 0.012051
734.215700 0.008318
734.449500 0.016541
734.683300 0.009763
734.917100 -0.015701
735.150900 0.002810
735.384700 0.025276
735.618500 0.005301
735.852400 0.016256
736.086200 0.002314
736.320100 -0.021643
736.553900 -0.000164
736.787800 -0.009542
737.021700 -0.000432
737.255600 0.009512
737.489500 -0.017891
737.723400 -0.014047
737.957300 -0.014133
738.191200 -0.000168
738.425200 -0.015193
738.659100 0.012788
738.893100 -0.034810
739.127100 0.002442
739.361000 -0.007274
739.595000 0.001546
739.829000 -0.025278
740.063000 -0.022004
740.297000 -0.006831
740.531000 -0.022355
740.765100 0.002163
740.999100 -0.002484
741.233200 -0.010943
741.467200 -0.017936
741.701300 -0.022865
741.935400 -0.014983
742.169500 0.007126
742.403600 -0.002050
742.637700 -0.004960
742.871800 0.001443
743.105900 -0.012689
743.340000 -0.010498
743.574200 -0.034788
743.808300 0.001948
744.042500 -0.037192
744.276700 -0.021276
744.510800 -0.027818
744.745000 -0.003717
744.979200 -0.000460
745.213400 -0.006788
745.447700 -0.019577
745.681900 -0.014069
745.916100 0.023613
746.150400 -0.016911
746.384600 0.024039
746.618900 -0.050839
746.853200 -0.008132
747.087400 -0.025458
747.321700 -0.014998
747.556000 0.013883
747.790300 -0.012201
748.024700 -0.039357
748.259000 -0.025665
748.493300 0.025050
748.727700 -0.013036
748.962000 0.017264
749.196400 -0.001203
749.430800 0.012643
749.665200 -0.009336
749.899500 -0.007568
750.133900 -0.003334
750.368400 0.000289
750.602800 0.000625
750.837200 -0.009564
751.071700 -0.009458
751.306100 0.015348
751.540600 -0.018566
751.775000 0.004444
752.009500 0.005517
752.244000 -0.010459
752.478500 -0.037789
752.713000 0.021537
752.947500 -0.016861
753.182000 0.005748
753.416600 -0.018142
753.651100 0.016006
753.885600 -0.013382
754.120200 0.007641
754.354800 -0.002990
754.589400 0.000065
754.823900 -0.010269
755.058500 0.004328
755.293100 -0.019386
755.527800 -0.017367
755.762400 -0.015099
755.997000 -0.006055
756.231700 -0.003210
756.466300 -0.014822
756.701000 0.011639
756.935600 -0.004139
757.170300 -0.015228
757.405000 0.008177
757.639700 -0.008547
757.874400 0.030745
758.109100 0.014852
758.343800 -0.006319
758.578600 0.010124
758.813300 0.005695
759.048100 -0.004880
759.282800 0.002557
759.517600 -0.009162
759.752400 0.011347
759.987200 0.019542
760.222000 0.001526
760.456800 0.012856
760.691600 0.001104
760.926400 0.004255
761.161300 0.013779
761.396100 0.001242
761.631000 -0.005806
761.865800 0.032688
762.100700 0.005877
762.335600 0.026575
762.570500 0.014102
762.805400 -0.006158
763.040300 -0.011766
763.275200 0.005408
763.510100 -0.002019
763.745000 0.014542
763.980000 0.033046
764.214900 -0.028068
764.449900 -0.002322
764.684900 -0.006052
764.919800 0.004704
765.154800 -0.015689
765.389800 0.015505
765.624800 0.019981
765.859900 -0.018348
766.094900 0.024227
766.329900 0.013606
766.565000 0.008850
766.800000 -0.017531
767.035100 -0.003120
767.270100 -0.024173
767.505200 0.006060
767.740300 -0.010156
767.975400 -0.007295
768.210500 -0.000991
768.445600 -0.023218
768.680800 -0.027665
768.915900 0.019332
769.151000 -0.008857
769.386200 0.002639
769.621400 -0.016078
769.856500 -0.017111
770.091700 0.012834
770.326900 -0.001198
770.562100 0.003132
770.797300 -0.012127
771.032500 0.005038
771.267700 0.002851
771.503000 0.007406
771.738200 0.015771
771.973500 -0.025038
772.208700 -0.009891
772.444000 0.015181
772.679300 0.007155
772.914600 -0.009397
773.149900 -0.015913
773.385200 -0.019789
773.620500 -0.007711
773.855800 0.000190
774.091100 -0.019091
774.326500 -0.020331
774.561800 -0.012368
774.797200 0.016331
775.032600 0.027156
775.267900 -0.042905
775.503300 -0.016173
775.738700 -0.010979
775.974100 -0.017107
776.209500 -0.001875
776.445000 -0.003390
776.680400 0.012003
776.915800 -0.000541
777.151300 -0.002933
777.386800 -0.018479
777.622200 -0.031497
777.857700 -0.029535
778.093200 -0.015417
778.328700 -0.020627
778.564200 -0.016155
778.799700 -0.014915
779.035200 0.001655
779.270700 -0.006662
779.506300 0.005901
779.741800 0.010412
779.977400 0.012197
780.213000 -0.000325
780.448500 -0.001927
780.684100 0.004619
780.919700 0.024157
781.155300 -0.039525
781.390900 0.015670
781.626500 0.013351
781.862200 0.010159
782.097800 -0.020116
782.333500 -0.015680
782.569100 0.025384
782.804800 0.011122
783.040500 -0.020422
783.276100 -0.021206
783.511800 -0.010963
783.747500 -0.009722
783.983200 0.009903
784.219000 -0.004396
784.454700 0.009675
784.690400 -0.017090
784.926200 0.014541
785.161900 -0.003802
785.397700 -0.040165
785.633500 -0.031107
785.869200 -0.003860
786.105000 -0.015580
786.340800 -0.001869
786.576600 -0.008372
786.812400 -0.016441
787.048300 -0.008174
787.284100 0.017674
787.519900 -0.013795
787.755800 -0.001519
787.991700 -0.001551
788.227500 0.001379
788.463400 0.003287
788.699300 -0.004981
788.935200 -0.028652
789.171100 0.006260
789.407000 -0.010781
789.642900 -0.009323
789.878900 0.016041
790.114800 -0.001200
790.350700 -0.045095
790.586700 -0.021382
790.822700 0.001228
791.058600 0.003704
791.294600 0.007821
791.530600 -0.019531
791.766600 -0.010537
792.002600 0.015467
792.238700 -0.009094
792.474700 0.020110
792.710700 0.002030
792.946800 -0.011815
793.182800 0.000641
793.418900 -0.006006
793.655000 -0.018136
793.891000 0.004735
794.127100 0.012117
794.363200 -0.002243
794.599300 -0.011334
794.835500 0.030878
795.071600 0.006542
795.307700 0.014276
795.543900 0.014160
795.780000 0.010627
796.016200 -0.009742
796.252300 -0.011235
796.488500 0.011174
796.724700 0.074968
796.960900 -0.012115
797.197100 -0.003059
797.433300 -0.003490
797.669500 0.017356
797.905800 -0.000743
798.142000 -0.006125
798.378300 -0.008170
798.614500 -0.011775
798.850800 -0.036000
799.087100 0.019467
799.323300 -0.028543
799.559600 -0.009861
799.795900 -0.004705
800.032200 0.007033
800.268600 -0.044366
800.504900 0.018722
800.741200 -0.027119
800.977600 0.020065
801.213900 -0.006778
801.450300 0.009649
801.686700 -0.002056
801.923000 0.004819
802.159400 -0.014854
802.395800 -0.044257
802.632200 0.014983
802.868600 -0.021495
803.105100 -0.036314
803.341500 -0.029579
803.577900 -0.025205
803.814400 0.034349
804.050800 -0.008461
804.287300 0.015366
804.523800 -0.009805
804.760300 -0.031117
804.996800 0.010723
805.233300 -0.008615
805.469800 0.049359
805.706300 -0.029441
805.942800 -0.034230
806.179400 -0.010055
806.415900 0.011968
806.652500 0.020882
806.889000 0.029051
807.125600 -0.009895
807.362200 -0.016132
807.598800 0.012307
807.835400 -0.022052
808.072000 -0.000594
808.308600 -0.011340
808.545200 -0.001750
808.781800 -0.010066
809.018500 0.042701
809.255100 0.002301
809.491800 -0.049180
809.728400 -0.039816
809.965100 -0.027521
810.201800 0.004144
810.438500 -0.003752
810.675200 -0.052685
810.911900 -0.002801
811.148600 0.016609
811.385300 0.012985
811.622100 -0.005524
811.858800 -0.047433
812.095600 -0.020979
812.332300 0.015176
812.569100 -0.049364
812.805900 -0.031484
813.042700 0.007778
813.279500 0.071970
813.516300 -0.068151
813.753100 -0.003704
813.989900 -0.015283
814.226700 0.018043
814.463600 0.022234
814.700400 -0.004640
814.937300 0.005084
815.174200 0.050144
815.411000 -0.045304
815.647900 -0.056354
815.884800 0.002812
816.121700 0.014408
816.358600 0.012228
816.595500 0.012212
816.832400 -0.028419
817.069400 -0.037366
817.306300 -0.024528
817.543300 -0.025902
817.780200 -0.080728
818.017200 -0.010623
818.254200 -0.002280
818.491200 -0.025601
818.728200 0.021098
818.965200 -0.027808
819.202200 -0.073287
819.439200 0.049507
819.676200 -0.052981
819.913300 -0.060729
820.150300 -0.045986
820.387400 0.034467
820.624400 0.041094
820.861500 0.009517
821.098600 -0.016866
821.335700 0.035573
821.572700 -0.036809
821.809900 -0.045274
822.047000 0.005630
822.284100 -0.018811
822.521200 -0.028135
822.758400 0.001500
822.995500 0.053373
823.232700 -0.031002
823.469800 0.035742
823.707000 -0.078004
823.944200 -0.046164
824.181400 0.039788
824.418600 -0.030816
824.655800 -0.018085
824.893000 -0.021274
825.130200 -0.043982
825.367500 -0.010729
825.604700 -0.002502
825.841900 0.028464
826.079200 0.034829
826.316500 -0.009321
826.553700 -0.007784
826.791000 -0.001522
827.028300 -0.000544
827.265600 -0.020196
827.502900 -0.048244
827.740200 0.004855
827.977600 -0.022593
828.214900 0.001948
828.452200 -0.004460
828.689600 0.022688
828.927000 -0.007171
829.164300 -0.092622
829.401700 -0.026294
829.639100 0.014395
829.876500 -0.049537
830.113900 -0.030367
830.351300 0.009230
830.588700 -0.023746
830.826100 0.005344
831.063600 0.009825
831.301000 0.042102
831.538500 -0.056624
831.775900 0.011845
832.013400 -0.012672
832.250900 -0.051054
832.488400 0.028317
832.725900 0.003191
832.963400 0.059008
833.200900 -0.007642
833.438400 -0.050216
833.675900 0.072808
833.913500 0.032746
834.151000 0.074708
834.388600 -0.027375
834.626100 -0.096990
834.863700 0.041431
835.101300 -0.044436
835.338900 -0.020460
835.576500 -0.009039
835.814100 -0.086084
836.051700 -0.033170
836.289300 0.010541
836.526900 -0.017486
836.764600 0.006627
837.002200 -0.004184
837.239900 0.046714
837.477500 0.034029
837.715200 -0.106865
837.952900 -0.074625
838.190600 0.008647
838.428300 -0.045220
838.666000 0.045878
838.903700 0.001072
839.141400 -0.061672
839.379100 -0.123617
839.616900 -0.105683
839.854600 -0.028608
840.092400 0.058306
840.330200 0.135307
840.567900 0.041898
840.805700 -0.027361
841.043500 0.048445
841.281300 0.022062
841.519100 -0.059357
841.756900 -0.014977
841.994700 -0.091386
842.232600 0.034406
842.470400 0.133671
842.708200 -0.093767
842.946100 -0.003835
843.184000 -0.148821
843.421800 0.012338
843.659700 -0.027640
843.897600 -0.092923
844.135500 0.040052
844.373400 0.150605
844.611300 -0.028265
844.849200 0.050046
845.087200 0.044941
845.325100 0.096280
845.563100 -0.025065
845.801000 0.101803
846.039000 -0.069481
846.277000 -0.065895
846.514900 -0.035253
846.752900 -0.126501
846.990900 -0.014170
847.228900 0.073075
847.466900 0.023223
847.705000 0.009126
847.943000 -0.131900
848.181000 0.007400
848.419100 -0.133003
848.657100 0.062354
848.895200 -0.015921
849.133300 0.142393
849.371300 0.040276
849.609400 -0.105590
849.847500 0.012338
850.085600 0.006221
850.323700 0.008910
850.561900 -0.115678
850.800000 -0.018447
851.038100 0.024647
851.276300 0.046698
851.514400 -0.018277
851.752600 -0.025171
851.990800 -0.084573
852.228900 -0.072868
852.467100 0.026671
852.705300 -0.049933
852.943500 -0.033476
853.181700 0.015334
853.420000 -0.055780
853.658200 -0.047117
853.896400 -0.017490
854.134700 0.014454
854.372900 -0.006293
854.611200 0.029657
854.849500 0.088399
855.087700 0.036962
855.326000 0.045329
855.564300 -0.002974
855.802600 0.002517
856.040900 0.047025
856.279200 -0.029961
856.517600 0.008482
856.755900 0.015351
856.994200 -0.042760
857.232600 0.029942
857.471000 -0.056597
857.709300 0.004983
857.947700 -0.035640
858.186100 0.059271
858.424500 -0.048617
858.662900 0.031181
858.901300 0.005719
859.139700 -0.041540
859.378100 -0.084664
859.616600 -0.007800
859.855000 -0.056082
860.093500 -0.048191
860.331900 -0.013135
860.570400 0.004851
860.808900 -0.011440
861.047300 -0.012299
861.285800 0.036875
861.524300 0.077236
861.762800 0.043021
862.001300 -0.060102
862.239900 0.044300
862.478400 -0.059702
862.716900 -0.084837
862.955500 0.044840
863.194000 -0.120329
863.432600 -0.000304
863.671200 0.047248
863.909800 -0.157445
864.148300 -0.083376
864.386900 -0.091231
864.625500 0.014208
864.864200 -0.080276
865.102800 -0.129987
865.341400 0.001319
865.580000 -0.060912
865.818700 0.092696
866.057300 -0.083223
866.296000 0.010340
866.534700 -0.058723
866.773300 -0.054597
867.012000 0.024398
867.250700 0.019427
867.489400 -0.039128
867.728100 0.068507
867.966900 0.066761
868.205600 -0.119483
868.444300 0.020690
868.683100 -0.049370
868.921800 -0.077699
869.160600 -0.095314
869.399300 -0.076499
869.638100 0.013484
869.876900 -0.119621
870.115700 -0.111313
870.354500 -0.102156
870.593300 -0.082710
870.832100 0.082924
871.070900 0.018452
871.309700 -0.039034
871.548600 0.089840
871.787400 -0.071910
872.026300 -0.146679
872.265100 -0.063957
872.504000 0.107999
872.742900 -0.059438
872.981800 -0.024799
873.220700 -0.097187
873.459600 0.029471
873.698500 0.036777
873.937400 -0.038015
874.176300 -0.016276
874.415300 0.130334
874.654200 -0.039905
874.893200 0.002997
875.132100 -0.127028
875.371100 -0.088928
875.610100 0.002984
875.849100 -0.003053
876.088000 -0.143897
876.327000 0.070109
876.566100 0.046002
876.805100 0.035446
877.044100 -0.089427
877.283100 -0.127697
877.522200 -0.163775
877.761200 -0.105073
878.000300 0.046454
878.239300 -0.059306
878.478400 0.013410
878.717500 -0.038705
878.956600 0.163299
879.195700 0.054407
879.434800 -0.069228
879.673900 -0.052102
879.913000 -0.053973
880.152100 0.081972
880.391300 -0.089184
880.630400 0.135127
880.869600 -0.015543
881.108700 -0.031281
881.347900 0.021275
881.587100 -0.010957
881.826200 -0.013082
882.065400 0.027387
882.304600 -0.099695
882.543800 -0.001528
882.783100 0.103273
883.022300 -0.092366
883.261500 -0.086018
883.500700 -0.045300
883.740000 -0.031233
883.979200 -0.024356
884.218500 -0.056709
884.457800 0.001253
884.697100 -0.080314
884.936300 -0.080450
885.175600 -0.041213
885.414900 -0.029214
885.654200 -0.030034
885.893600 0.017988
886.132900 -0.042836
886.372200 -0.045944
886.611600 -0.181794
886.850900 -0.032419
887.090300 0.016643
887.329600 -0.039111
887.569000 -0.047129
887.808400 -0.025740
888.047800 -0.041129
888.287200 -0.033503
888.526600 -0.015275
888.766000 -0.019255
889.005400 -0.111428
889.244800 -0.139595
889.484300 -0.050135
889.723700 0.054842
889.963200 -0.043697
890.202600 0.123172
890.442100 -0.092352
890.681600 -0.100532
890.921100 0.092750
891.160600 0.125753
891.400100 -0.038821
891.639600 0.021698
891.879100 -0.046578
892.118600 -0.098213
892.358100 0.117286
892.597700 -0.030135
892.837200 0.004328
893.076800 -0.014320
893.316300 0.090271
893.555900 -0.008850
893.795500 0.055020
894.035100 -0.027908
894.274700 -0.082700
894.514300 0.036772
894.753900 -0.084262
894.993500 0.044120
895.233100 -0.084627
895.472700 -0.004119
895.712400 -0.028356
895.952000 0.030413
896.191700 0.027228
896.431400 -0.093406
896.671000 0.047103
896.910700 0.029081
897.150400 -0.039671
897.390100 0.050137
897.629800 -0.000352
897.869500 -0.166016
898.109200 0.167853
898.348900 0.037155
898.588700 0.023505
898.828400 0.092227
899.068200 0.027619
899.307900 -0.031743
899.547700 -0.010782
899.787500 0.046464
900.027200 -0.141256
900.267000 0.098039
900.506800 0.007010
900.746600 -0.070923
900.986400 -0.055268
901.226300 -0.067937
901.466100 0.182639
901.705900 0.149803
901.945800 -0.012864
902.185600 -0.022768
902.425500 -0.051811
902.665400 -0.194639
902.905200 0.093413
903.145100 -0.063703
903.385000 0.043573
903.624900 0.007514
903.864800 -0.073975
904.104700 -0.025988
904.344600 -0.035391
904.584600 -0.083474
904.824500 0.014576
905.064400 -0.017099
905.304400 -0.183046
905.544400 0.066624
905.784300 0.051458
906.024300 -0.034713
906.264300 -0.076303
906.504300 0.071079
906.744300 0.102936
906.984300 -0.113087
907.224300 0.018467
907.464300 0.180909
907.704300 -0.051505
907.944400 -0.121430
908.184400 -0.000355
908.424500 -0.051343
908.664500 0.240086
908.904600 -0.171993
909.144700 0.018179
909.384700 -0.045511
909.624800 -0.136798
909.864900 -0.022044
910.105000 0.101719
910.345200 -0.229120
910.585300 -0.018141
910.825400 -0.094016
911.065500 -0.050102
911.305700 -0.035559
911.545800 -0.125948
911.786000 0.012359
912.026200 -0.004068
912.266300 0.004761
912.506500 -0.084621
912.746700 -0.082991
912.986900 -0.025663
913.227100 -0.092705
913.467300 -0.054898
913.707500 -0.102677
913.947800 -0.128128
914.188000 0.098128
914.428300 -0.160650
914.668500 0.016741
914.908800 -0.135974
915.149000 0.002469
915.389300 -0.133519
915.629600 0.100839
915.869900 0.012593
916.110200 -0.205339
916.350500 -0.076009
916.590800 -0.069007
916.831100 -0.017370
917.071400 -0.176796
917.311800 -0.026505
917.552100 -0.068194
917.792500 -0.168255
918.032800 -0.005155
918.273200 0.148924
918.513600 -0.022748
918.753900 -0.036289
918.994300 0.035061
919.234700 -0.023619
919.475100 0.046489
919.715500 0.060334
919.956000 -0.000342
920.196400 -0.167376
920.436800 -0.075268
920.677300 -0.162312
920.917700 0.106479
921.158200 -0.140335
921.398600 -0.010184
921.639100 0.066625
921.879600 -0.222046
922.120100 0.077547
922.360600 0.113681
922.601100 -0.134128
922.841600 0.063172
923.082100 0.021618
923.322600 -0.032977
923.563100 -0.211116
923.803700 0.122916
924.044200 -0.210622
924.284800 0.138899
924.525400 -0.118753
924.765900 0.261664
925.006500 -0.022602
925.247100 0.217409
925.487700 0.065999
925.728300 0.171136
925.968900 -0.161620
926.209500 -0.183165
926.450100 -0.030393
926.690800 0.256873
926.931400 -0.231614
927.172000 -0.043583
927.412700 0.011277
927.653300 -0.068444
927.894000 -0.033311
928.134700 0.120690
928.375400 -0.170357
928.616100 0.120537
928.856800 0.060385
929.097500 -0.182398
929.338200 -0.089145
929.578900 0.097245
929.819600 -0.177873
930.060400 -0.040864
930.301100 -0.172794
930.541900 -0.107783
930.782600 0.080827
931.023400 -0.246161
931.264200 0.139543
931.504900 0.017670
931.745700 0.155873
931.986500 0.099163
932.227300 -0.130738
932.468100 0.149319
932.708900 -0.113600
932.949800 0.028588
933.190600 0.183432
933.431400 -0.104373
933.672300 -0.087188
933.913100 -0.159838
934.154000 0.021420
934.394900 -0.196374
934.635800 -0.333975
934.876600 -0.069882
935.117500 0.008667
935.358400 -0.030556
935.599300 0.367446
935.840300 -0.068287
936.081200 -0.106358
936.322100 -0.302099
936.563000 3.430881
936.804000 0.144194
937.044900 -0.340472
937.285900 -0.203583
937.526900 0.343902
937.767800 0.277969
938.008800 -0.108404
938.249800 0.159829
938.490800 -0.085074
938.731800 0.109513
938.972800 0.191844
939.213800 -0.142564
939.454900 0.023077
939.695900 0.097923
939.936900 0.110858
940.178000 0.038600
940.419000 -0.066032
940.660100 0.375063
940.901200 0.097406
941.142200 -0.414566
941.383300 -0.061841
941.624400 -0.184571
941.865500 0.183076
942.106600 0.002102
942.347700 -0.317939
942.588900 0.188770
942.830000 0.066585
943.071100 -0.221069
943.312300 0.217253
943.553400 -0.175794
943.794600 -0.269729
944.035700 -0.128260
944.276900 -0.125488
944.518100 -0.294946
944.759300 0.006929
945.000500 -0.309351
945.241700 0.165277
945.482900 0.122935
945.724100 0.166692
945.965300 -0.227697
946.206600 -0.237194
946.447800 0.049654
946.689100 0.098966
946.930300 -1.042655
947.171600 0.151290
947.412800 0.548185
947.654100 0.066456
947.895400 0.200656
948.136700 0.057780
948.378000 -0.421324
948.619300 0.354828
948.860600 -0.027188
949.101900 0.027768
949.343300 -0.360483
949.584600 0.480061
949.825900 -0.329741
950.067300 0.534962
950.308600 -0.125856
950.550000 -0.078204
950.791400 2.710117
951.032700 -0.508196
951.274100 -0.012545
951.515500 -0.002275
951.756900 0.194887
951.998300 0.070087
952.239800 -0.273162
952.481200 -0.095197
952.722600 -0.412565
952.964000 -0.021441
953.205500 -0.166919
953.446900 -0.095980
953.688400 -0.238000
953.929900 0.454038
954.171300 -1.410420
954.412800 -0.079025
954.654300 0.230707
954.895800 -0.186095
955.137300 -0.289906
955.378800 -0.081190
955.620300 -0.356812
955.861800 0.035450
956.103400 -0.024401
956.344900 -0.109392
956.586500 -0.087500
956.828000 0.257695
957.069600 -0.321386
957.311100 -0.481183
957.552700 0.475531
957.794300 -0.194873
958.035900 -0.433127
958.277500 -0.572778
958.519100 0.689644
958.760700 -0.207464
959.002300 -0.032185
959.243900 -0.058845
959.485600 -0.396576
959.727200 -0.191820
959.968800 -0.369247
960.210500 -0.470257
960.452200 -0.181695
960.693800 -0.349266
960.935500 0.000000
961.177200 -0.203273
961.418900 0.126873
961.660600 -0.184282
961.902300 0.217513
962.144000 0.450304
962.385700 -0.466707
962.627400 0.200934
962.869200 -0.311673
963.110900 -0.315631
963.352700 0.519960
963.594400 -0.022422
963.836200 -0.175366
964.077900 -0.069592
964.319700 0.266149
964.561500 0.042535
964.803300 0.339220
965.045100 0.546287
965.286900 0.355528
965.528700 -0.292912
965.770500 2.935507
966.012300 -0.537931
966.254200 -0.022557
966.496000 -0.568787
966.737900 0.259883
966.979700 -0.033255
967.221600 0.397622
967.463400 0.033244
967.705300 -0.125779
967.947200 -0.557733
968.189100 -0.605731
968.431000 -0.023032
968.672900 -0.153971
968.914800 -0.180124
969.156700 -0.259676
969.398700 -0.319376
969.640600 -1.139199
969.882500 0.083925
970.124500 -0.554824
970.366400 0.137633
970.608400 -0.272161
970.850400 -0.647246
971.092300 -0.239591
971.334300 -0.320354
971.576300 2.598791
971.818300 0.089622
972.060300 0.006816
972.302300 0.270330
972.544300 -0.476339
972.786400 0.616300
973.028400 0.119755
973.270400 0.097923
973.512500 -0.210051
973.754500 -0.045389
973.996600 -0.243038
974.238700 0.066349
974.480700 -0.511603
974.722800 -0.130247
974.964900 -0.256537
975.207000 0.151290
975.449100 -0.346389
975.691200 -0.190910
975.933300 0.068368
976.175500 -2.017033
976.417600 0.020148
976.659700 -0.053935
976.901900 3.021603
977.144000 0.144514
977.386200 0.952683
977.628300 0.089362
977.870500 0.418263
978.112700 -0.461094
978.354900 -0.078939
978.597100 0.237904
978.839300 -0.112697
979.081500 -0.034557
979.323700 -3.204663
979.565900 -0.589637
979.808200 0.620851
980.050400 0.045070
980.292600 0.022276
980.534900 -0.000842
980.777100 0.348027
981.019400 0.014829
981.261700 0.178696
981.504000 0.051785
981.746200 -1.365220
981.988500 -0.224536
982.230800 2.805501
982.473100 -0.118126
982.715500 0.432680
982.957800 -0.405322
983.200100 2.990339
983.442400 0.033168
983.684800 -0.506870
983.927100 -0.342067
984.169500 -0.375924
984.411800 -0.389931
984.654200 1.481669
984.896600 0.018702
985.139000 -2.032950
985.381400 0.024507
985.623800 -0.025028
985.866200 0.701230
986.108600 -2.017033
986.351000 -0.091367
986.593400 0.175763
986.835800 0.175623
987.078300 2.682145
987.320700 -0.361164
987.563200 2.700704
987.805600 0.812913
988.048100 0.072934
988.290600 -0.492916
988.533100 -3.013680
988.775600 2.980458
989.018000 -0.122517
989.260500 -0.056967
989.503100 -3.278067
989.745600 -0.779238
989.988100 -3.087071
990.230600 0.025722
990.473200 2.935507
990.715700 0.185797
990.958200 -0.555797
991.200800 -0.122393
991.443400 -3.221414
991.685900 -0.446129
991.928500 -1.602060
992.171100 -0.339948
992.413700 3.125806
992.656300 0.059920
992.898900 0.037627
993.141500 -0.421780
993.384100 3.021603
993.626700 -0.110891
993.869400 -0.311460
994.112000 -0.508950
994.354700 1.148211
994.597300 0.073067
994.840000 0.000000
995.082600 -0.628896
995.325300 -0.873814
995.568000 -0.018295
995.810700 2.127105
996.053400 -0.242616
996.296100 -0.149439
996.538800 0.465477
996.781500 0.054866
997.024200 -1.339238
997.267000 0.471544
997.509700 0.043347
997.752400 -0.368082
997.995200 -0.028390
998.237900 -0.551770
998.480700 -0.352617
998.723500 0.000000
998.966200 2.956168
999.209000 0.000000
999.451800 -0.035919
999.694600 0.527405
999.937400 -0.561606
1000.180200 -0.188463
1000.423000 0.014332
1000.665900 -0.208327
1000.908700 -0.626229
1001.151500 -0.344341
1001.394400 2.745075
1001.637200 -0.058264
1001.880100 0.778151
1002.123000 0.519960
1002.365800 -0.706327
1002.608700 -0.396413
1002.851600 0.444937
1003.094500 -0.266979
1003.337400 -0.739644
1003.580300 -2.914343
1003.823200 -0.664570
1004.066100 0.175845
1004.309100 -0.257477
1004.552000 0.072589
1004.794900 -0.246898
1005.037900 -0.086534
1005.280800 -0.198571
1005.523800 0.027308
1005.766700 0.080612
1006.009700 -0.108971
1006.252700 0.000000
1006.495700 2.812913
1006.738700 -3.392169
1006.981700 0.232996
1007.224700 0.636179
1007.467700 -1.039453
1007.710700 2.610660
1007.953800 0.266459
1008.196800 -0.536836
1008.439800 0.875200
1008.682900 -0.600512
1008.925900 -0.039116
1009.169000 -0.082851
1009.412100 -2.957128
1009.655100 2.008600
1009.898200 -0.102092
1010.141300 -0.144523
1010.384400 -0.421732
1010.627500 -0.426580
1010.870600 -0.098155
1011.113700 0.618013
1011.356800 0.050086
1011.600000 1.591065
1011.843100 -0.104652
1012.086300 -2.017033
1012.329400 -0.069397
1012.572600 -3.136721
1012.815700 0.384230
1013.058900 -2.664642
1013.302100 0.249543
1013.545200 -0.126125
1013.788400 0.052084
1014.031600 -3.048053
1014.274800 0.079547
1014.518000 0.282297
1014.761300 0.014972
1015.004500 -1.919078
1015.247700 -0.307702
1015.490900 -2.800029
1015.734200 0.262991
1015.977400 -0.644222
1016.220700 -3.136721
1016.464000 0.024430
1016.707200 -1.220108
1016.950500 -0.677744
1017.193800 -0.114480
1017.437100 0.035954
1017.680400 0.888516
1017.923700 0.039880
1018.167000 1.134814
1018.410300 -0.141877
1018.653600 0.387475
1018.896900 0.016852
1019.140300 -0.314983
1019.383600 0.870366
1019.627000 0.083384
1019.870300 -0.501697
1020.113700 0.104012
1020.357100 -0.411136
1020.600400 -0.394520
1020.843800 0.248273
1021.087200 0.264701
1021.330600 -2.274158
1021.574000 0.518108
1021.817400 -2.600973
1022.060800 -3.116276
1022.304200 -2.684845
1022.547700 0.147655
1022.791100 -0.804826
1023.034500 -0.066756
