# Wavelength	Absorbance
197.780200 -0.033168
197.984200 2.907949
198.188200 0.241902
198.392200 2.682145
198.596300 0.083638
198.800300 2.318063
199.004400 2.918555
199.208500 0.346459
199.412600 1.028513
199.616800 2.768638
199.820900 -0.499348
200.025100 2.877947
200.229200 2.463893
200.433400 0.024523
200.637600 0.535560
200.841800 2.902003
201.046100 -0.351993
201.250300 0.376289
201.454600 0.332151
201.658900 0.240248
201.863100 0.083067
202.067400 -0.394610
202.271800 0.008124
202.476100 2.896526
202.680500 2.827369
202.884800 2.980458
203.089200 0.724998
203.293600 2.745075
203.498000 1.767156
203.702400 0.187241
203.906900 -1.346310
204.111300 -2.838849
204.315800 -0.183336
204.520300 3.062958
204.724800 -0.567321
204.929300 1.250071
205.133800 0.072996
205.338400 2.820201
205.543000 1.627366
205.747500 -0.156704
205.952100 0.025278
206.156700 3.034628
206.361400 0.000000
206.566000 2.187521
206.770600 0.508287
206.975300 1.148338
207.180000 -1.853872
207.384700 2.587711
207.589400 -3.020775
207.794100 2.480007
207.998900 2.622214
208.203600 0.300419
208.408400 0.026329
208.613200 2.820201
208.818000 -0.416146
209.022800 0.335792
209.227600 0.121231
209.432500 1.363880
209.637300 -0.488979
209.842200 2.294466
210.047100 2.798651
210.252000 0.057443
210.456900 -0.218992
210.661800 -0.361429
210.866800 0.228033
211.071800 0.465001
211.276700 2.907949
211.481700 0.473945
211.686700 -0.475092
211.891800 2.480007
212.096800 3.336260
212.301800 2.890421
212.506900 -0.067368
212.712000 0.756157
212.917100 0.314652
213.122200 0.185952
213.327300 1.334402
213.532500 0.000000
213.737600 0.268589
213.942800 1.447158
214.148000 0.368993
214.353200 0.000000
214.558400 0.384460
214.763600 0.531290
214.968900 2.896526
215.174100 0.322732
215.379400 -2.390935
215.584700 2.846955
215.790000 0.595091
215.995300 2.820201
216.200700 -0.508109
216.406000 2.902003
216.611400 0.378196
216.816800 0.947294
217.022200 -0.576380
217.227600 0.594998
217.433000 -0.649267
217.638400 3.047275
217.843900 -0.081052
218.049400 0.000000
218.254800 0.291004
218.460300 3.008600
218.665900 3.186674
218.871400 0.437943
219.076900 2.990339
219.282500 -0.109092
219.488100 3.047275
219.693600 -0.286134
219.899200 0.485886
220.104900 1.168888
220.310500 -0.853208
220.516100 0.000000
220.721800 2.872156
220.927500 0.033321
221.133200 2.902003
221.338900 0.025208
221.544600 0.637440
221.750300 3.183555
221.956100 2.907411
222.161800 -0.233252
222.367600 0.087858
222.573400 2.643453
222.779200 -3.128399
222.985000 -2.911690
223.190900 3.017451
223.396700 -0.381422
223.602600 0.171559
223.808500 -0.356675
224.014400 0.644183
224.220300 0.275591
224.426200 -0.358400
224.632200 -0.246970
224.838100 -0.195226
225.044100 2.653213
225.250100 2.550228
225.456100 -0.211299
225.662100 -0.413647
225.868100 2.127105
226.074200 -0.244338
226.280200 -2.993436
226.486300 0.112956
226.692400 -3.020775
226.898500 0.304829
227.104600 2.294466
227.310700 0.057704
227.516900 -0.418583
227.723000 -0.429923
227.929200 0.073014
228.135400 0.293061
228.341600 -0.311779
228.547800 0.959008
228.754100 0.577380
228.960300 2.245513
229.166600 -2.571709
229.372900 2.907949
229.579100 2.683047
229.785500 2.791691
229.991800 -1.150537
230.198100 0.291210
230.404500 -0.607921
230.610800 -0.042214
230.817200 0.000000
231.023600 2.890421
231.230000 -0.098708
231.436400 0.889837
231.642900 -0.120347
231.849300 -0.428679
232.055800 2.008600
232.262300 0.368433
232.468800 1.959041
232.675300 -0.221157
232.881800 0.390368
233.088400 0.354140
233.294900 -0.372497
233.501500 2.902003
233.708100 -2.766413
233.914700 -0.243762
234.121300 -2.888741
234.327900 2.776701
234.534600 -0.432466
234.741300 3.097604
234.947900 0.019559
235.154600 0.529404
235.361300 3.122544
235.568000 0.028580
235.774800 2.662758
235.981500 2.562293
236.188300 -3.093071
236.395100 0.076840
236.601800 0.000000
236.808700 -0.013565
237.015500 2.961421
237.222300 2.853698
237.429200 0.498877
237.636000 0.362634
237.842900 1.851258
238.049800 0.219585
238.256700 2.653213
238.463600 1.917205
238.670600 0.016087
238.877500 0.239241
239.084500 -3.085647
239.291500 -0.010195
239.498500 -0.643228
239.705500 -0.560124
239.912500 1.845098
240.119500 -1.008774
240.326600 2.190332
240.533700 0.000000
240.740700 -0.381422
240.947800 0.350852
241.154900 0.158817
241.362100 3.108227
241.569200 0.483238
241.776400 2.999131
241.983500 0.574389
242.190700 0.507856
242.397900 -2.209515
242.605100 -0.416906
242.812400 0.325260
243.019600 0.851358
243.226900 -0.100787
243.434100 1.767156
243.641400 2.736397
243.848700 3.012837
244.056000 -2.698970
244.263400 0.081504
244.470700 0.044961
244.678100 -0.199516
244.885400 2.945469
245.092800 0.372515
245.300200 0.095484
245.507600 3.330008
245.715100 3.034628
245.922500 -0.011700
246.130000 1.230449
246.337500 0.484585
246.544900 -0.263717
246.752400 0.325035
246.960000 0.902793
247.167500 1.328882
247.375000 0.000000
247.582600 3.025715
247.790200 1.845098
247.997800 3.025715
248.205400 3.262925
248.413000 0.155901
248.620600 2.727541
248.828300 0.571243
249.035900 0.510772
249.243600 0.023734
249.451300 1.133176
249.659000 -0.016679
249.866700 3.168203
250.074500 0.125972
250.282200 0.455491
250.490000 0.169733
250.697800 0.386057
250.905600 -0.011355
251.113400 0.577747
251.321200 -0.540754
251.529000 -0.843269
251.736900 0.395781
251.944700 0.375770
252.152600 0.507834
252.360500 0.050201
252.568400 -0.036212
252.776300 2.397940
252.984300 0.475492
253.192200 0.438884
253.400200 2.935003
253.608200 2.599883
253.816200 0.348402
254.024200 0.090983
254.232200 -0.319026
254.440200 -3.141763
254.648300 0.882887
254.856400 2.701568
255.064400 -0.261850
255.272500 0.185914
255.480600 0.643931
255.688800 -3.011570
255.896900 0.538833
256.105100 0.689385
256.313200 2.752816
256.521400 2.827369
256.729600 3.025715
256.937800 3.171434
257.146000 0.906368
257.354300 0.000000
257.562500 0.259637
257.770800 0.000000
257.979100 0.102275
258.187400 2.833784
258.395700 0.511077
258.604000 0.573731
258.812400 0.301030
259.020700 0.599613
259.229100 0.944553
259.437500 0.826672
259.645900 0.346513
259.854300 2.878522
260.062700 0.664583
260.271100 2.621176
260.479600 -0.133610
260.688100 -0.188216
260.896500 0.215028
261.105000 -0.930870
261.313500 -0.604650
261.522100 3.142702
261.730600 -0.108269
261.939200 2.701568
262.147700 2.989895
262.356300 -0.199408
262.564900 -0.197441
262.773500 0.007044
262.982200 0.069983
263.190800 0.000000
263.399500 0.144620
263.608100 0.138650
263.816800 0.573731
264.025500 2.396199
264.234200 -0.667064
264.442900 2.053078
264.651700 3.097604
264.860400 2.662758
265.069200 0.504610
265.278000 2.990339
265.486800 0.766376
265.695600 -0.678150
265.904400 2.950851
266.113300 2.599883
266.322100 3.063333
266.531000 -0.962972
266.739900 -0.879303
266.948800 3.125806
267.157700 -0.059687
267.366600 0.121385
267.575500 0.203844
267.784500 -0.670141
267.993500 0.117962
268.202400 2.970812
268.411400 3.021603
268.620500 2.761176
268.829500 2.775974
269.038500 -0.138599
269.247600 0.032714
269.456600 2.008600
269.665700 0.419129
269.874800 0.289363
270.083900 0.538435
270.293100 0.000000
270.502200 3.034628
270.711400 2.127105
270.920500 2.833784
271.129700 2.985426
271.338900 3.115611
271.548100 -0.024873
271.757300 0.603684
271.966600 2.890421
272.175800 0.275011
272.385100 3.132580
272.594400 0.118942
272.803700 0.271094
273.013000 -0.308209
273.222300 -0.007841
273.431600 -0.020581
273.641000 0.783272
273.850400 -0.459800
274.059700 -0.321446
274.269100 0.163410
274.478500 2.950851
274.688000 0.228830
274.897400 0.167317
275.106900 -0.295426
275.316300 0.017554
275.525800 3.067071
275.735300 -3.002598
275.944800 -0.357374
276.154300 2.662758
276.363900 -0.367374
276.573400 2.840106
276.783000 0.419129
276.992600 0.637440
277.202200 -0.280084
277.411800 2.587711
277.621400 -0.195184
277.831000 0.307691
278.040700 0.062926
278.250300 0.328840
278.460000 2.935507
278.669700 2.980458
278.879400 -0.363605
279.089100 2.691965
279.298900 0.383387
279.508600 -0.160110
279.718400 0.328287
279.928100 -3.128399
280.137900 0.350862
280.347700 2.632457
280.557600 0.389237
280.767400 1.290829
280.977200 0.121648
281.187100 0.000000
281.397000 -0.113672
281.606900 -2.390935
281.816800 0.263547
282.026700 -0.033000
282.236600 2.935003
282.446600 -0.040452
282.656500 0.000000
282.866500 2.791691
283.076500 -0.682319
283.286500 3.115278
283.496500 -0.069771
283.706500 0.597781
283.916600 -0.354082
284.126600 0.845098
284.336700 0.756627
284.546800 -0.051776
284.756900 0.125348
284.967000 1.148338
285.177100 -0.160608
285.387300 -2.838849
285.597400 -0.124730
285.807600 -0.082410
286.017800 0.747703
286.228000 0.000000
286.438200 0.142050
286.648400 0.368808
286.858700 0.426441
287.068900 2.760422
287.279200 -0.274605
287.489500 2.414973
287.699800 -0.055879
287.910100 2.621176
288.120400 -0.087858
288.330800 -0.734617
288.541100 0.653984
288.751500 1.071356
288.961900 -0.500708
289.172300 0.000000
289.382700 0.995635
289.593100 0.650833
289.803500 -2.888741
290.014000 2.980458
290.224500 0.632673
290.434900 -2.309630
290.645400 0.165855
290.855900 2.653213
291.066500 -0.202372
291.277000 2.744293
291.487500 -0.242932
291.698100 -0.345973
291.908700 -0.769093
292.119300 0.182390
292.329900 0.049533
292.540500 0.418724
292.751100 -0.151381
292.961800 0.000000
293.172400 1.284943
293.383100 0.000000
293.593800 2.994757
293.804500 -0.626016
294.015200 0.229949
294.226000 -2.716838
294.436700 -0.278391
294.647500 0.069713
294.858200 0.120092
295.069000 -0.181159
295.279800 -0.284379
295.490600 0.000000
295.701500 0.419698
295.912300 3.082785
296.123200 0.044151
296.334000 2.719331
296.544900 0.136970
296.755800 3.220892
296.966700 -0.082569
297.177700 0.120535
297.388600 -0.238766
297.599500 2.269513
297.810500 0.178568
298.021500 0.722708
298.232500 3.155640
298.443500 1.690196
298.654500 0.325667
298.865600 0.105031
299.076600 2.622214
299.287700 -2.639486
299.498800 0.541208
299.709900 2.902003
299.921000 0.714689
300.132100 1.494552
300.343200 0.418576
300.554400 2.769377
300.765500 2.853698
300.976700 -3.121560
301.187900 0.955268
301.399100 2.813581
301.610300 0.395368
301.821500 3.364739
302.032800 0.424152
302.244100 1.130960
302.455300 0.123093
302.666600 0.069897
302.877900 1.147161
303.089200 -0.408478
303.300600 0.023958
303.511900 0.331325
303.723300 -0.328088
303.934600 -0.372643
304.146000 -2.240549
304.357400 -0.138740
304.568800 0.130118
304.780300 3.192289
304.991700 0.002862
305.203100 2.271842
305.414600 0.626673
305.626100 -0.385869
305.837600 0.324329
306.049100 2.775974
306.260600 -0.195838
306.472200 2.245513
306.683700 0.179548
306.895300 0.083826
307.106900 0.465312
307.318400 0.462920
307.530100 -0.092194
307.741700 2.806180
307.953300 3.332236
308.165000 0.000000
308.376600 0.044920
308.588300 3.242293
308.800000 -0.120805
309.011700 3.215109
309.223400 -0.197239
309.435100 2.450249
309.646900 0.180190
309.858600 3.054996
310.070400 0.362632
310.282200 -1.349416
310.494000 0.066760
310.705800 0.053592
310.917600 3.047275
311.129500 2.840106
311.341300 0.724737
311.553200 0.134308
311.765100 1.391061
311.977000 3.142702
312.188900 0.245749
312.400800 0.951418
312.612700 3.012837
312.824700 0.575197
313.036600 0.184454
313.248600 3.332034
313.460600 0.188661
313.672600 3.275081
313.884600 0.247511
314.096700 -0.402715
314.308700 1.213510
314.520800 0.011757
314.732800 0.577351
314.944900 0.307279
315.157000 0.325035
315.369200 3.082785
315.581300 0.402450
315.793400 0.226701
316.005600 -0.113904
316.217700 0.621660
316.429900 3.525174
316.642100 0.550155
316.854300 -0.034627
317.066600 0.451875
317.278800 3.417139
317.491100 0.596792
317.703300 0.324689
317.915600 1.217265
318.127900 0.874051
318.340200 3.097604
318.552500 3.255273
318.764900 0.787067
318.977200 3.437592
319.189600 0.538833
319.401900 0.443247
319.614300 0.215635
319.826700 0.765777
320.039200 0.839058
320.251600 0.477986
320.464000 0.637290
320.676500 0.669793
320.889000 0.316164
321.101400 0.328113
321.313900 0.692220
321.526500 0.361767
321.739000 0.830034
321.951500 3.472903
322.164100 0.493093
322.376600 0.476370
322.589200 0.901961
322.801800 0.141942
323.014400 0.199604
323.227000 3.354876
323.439700 3.437433
323.652300 0.559602
323.865000 3.374748
324.077700 0.962612
324.290400 0.883757
324.503100 3.378580
324.715800 1.089524
324.928500 3.425697
325.141200 3.384174
325.354000 0.392035
325.566800 1.240655
325.779600 3.531990
325.992400 1.319074
326.205200 1.116065
326.418000 0.775392
326.630800 0.692754
326.843700 3.659250
327.056600 1.018101
327.269400 3.416973
327.482300 0.693140
327.695200 0.814255
327.908200 1.359176
328.121100 3.453930
328.334000 3.554126
328.547000 1.487469
328.760000 0.677274
328.973000 0.471434
329.186000 3.564311
329.399000 0.620489
329.612000 0.815302
329.825100 0.399506
330.038100 0.522963
330.251200 0.502834
330.464300 0.876542
330.677400 0.642048
330.890500 0.839284
331.103600 0.614778
331.316700 0.677239
331.529900 3.658298
331.743100 3.583879
331.956200 2.117271
332.169400 3.577836
332.382600 3.520876
332.595900 0.560761
332.809100 0.395519
333.022300 3.595606
333.235600 0.934498
333.448900 0.710752
333.662200 3.609381
333.875500 0.949493
334.088800 0.653740
334.302100 0.612121
334.515400 1.220578
334.728800 0.427027
334.942200 1.236021
335.155500 0.783666
335.368900 1.138816
335.582300 0.586649
335.795800 1.681333
336.009200 0.576211
336.222700 3.666237
336.436100 3.725258
336.649600 1.079112
336.863100 3.676053
337.076600 0.732805
337.290100 1.145892
337.503600 3.672098
337.717200 0.794559
337.930700 1.836225
338.144300 1.064199
338.357900 3.656290
338.571500 0.630022
338.785100 3.703205
338.998700 0.391231
339.212400 3.815312
339.426000 0.649939
339.639700 1.147438
339.853300 1.245766
340.067000 0.818663
340.280700 0.637195
340.494500 1.056075
340.708200 0.590511
340.921900 3.796644
341.135700 3.715669
341.349500 0.766535
341.563300 0.696180
341.777100 1.178607
341.990900 0.954371
342.204700 3.816042
342.418500 0.577863
342.632400 3.830460
342.846300 0.874433
343.060100 0.557890
343.274000 1.165120
343.487900 3.871748
343.701900 0.969758
343.915800 1.332124
344.129700 1.563981
344.343700 0.437761
344.557700 1.807648
344.771700 3.809694
344.985700 1.197664
345.199700 3.834484
345.413700 3.908914
345.627700 3.783332
345.841800 0.832696
346.055900 3.854124
346.269900 1.322102
346.484000 3.898615
346.698100 3.825686
346.912300 0.916347
347.126400 1.041501
347.340600 0.806092
347.554700 3.883264
347.768900 3.886321
347.983100 0.774445
348.197300 3.889246
348.411500 1.084296
348.625700 3.866760
348.840000 0.986925
349.054200 0.961354
349.268500 0.824490
349.482800 3.888011
349.697100 3.921634
349.911400 3.877832
350.125700 0.881187
350.340000 3.937869
350.554400 1.306085
350.768700 3.912806
350.983100 0.824749
351.197500 1.092671
351.411900 1.632255
351.626300 1.435090
351.840700 1.181277
352.055200 3.931966
352.269600 3.959471
352.484100 3.950851
352.698600 1.005995
352.913100 3.896857
353.127600 1.421639
353.342100 0.756536
353.556600 2.108222
353.771200 1.581023
353.985800 1.283727
354.200300 0.937462
354.414900 3.981093
354.629500 0.792532
354.844100 2.848145
355.058800 0.719511
355.273400 3.971369
355.488100 3.989138
355.702700 1.419739
355.917400 3.938920
356.132100 0.873764
356.346800 3.982000
356.561500 0.690076
356.776300 1.148901
356.991000 1.092201
357.205800 1.220851
357.420600 3.988202
357.635300 1.130175
357.850100 1.284618
358.065000 3.991935
358.279800 1.320633
358.494600 1.341947
358.709500 1.373393
358.924300 1.087058
359.139200 1.242641
359.354100 0.846439
359.569000 2.463466
359.783900 1.110469
359.998900 0.789851
360.213800 4.019947
360.428800 1.107887
360.643800 3.982497
360.858700 2.416878
361.073700 2.153558
361.288800 1.048706
361.503800 2.139961
361.718800 0.949092
361.933900 4.009323
362.148900 0.855498
362.364000 3.994713
362.579100 1.042070
362.794200 0.917339
363.009300 1.275676
363.224500 4.031206
363.439600 1.112590
363.654800 1.253234
363.869900 0.958127
364.085100 4.019947
364.300300 0.875549
364.515500 2.162611
364.730800 0.889076
364.946000 2.909480
365.161200 4.048325
365.376500 1.304604
365.591800 4.054805
365.807100 4.020403
366.022400 1.290035
366.237700 0.949622
366.453000 2.972434
366.668400 1.177685
366.883700 1.491925
367.099100 1.154897
367.314500 2.541900
367.529900 1.962312
367.745300 1.318103
367.960700 1.068600
368.176100 1.063688
368.391600 4.101850
368.607000 1.096480
368.822500 4.111901
369.038000 0.777629
369.253500 1.116328
369.469000 1.234980
369.684500 1.518926
369.900100 4.150787
370.115600 1.216056
370.331200 2.553779
370.546800 1.083233
370.762400 1.432296
370.978000 4.107990
371.193600 0.817670
371.409200 1.343042
371.624900 1.186197
371.840500 1.871499
372.056200 1.738626
372.271900 1.319373
372.487600 4.180183
372.703300 1.413078
372.919000 1.309373
373.134800 1.420833
373.350500 2.138000
373.566300 1.180125
373.782000 2.274218
373.997800 4.169498
374.213600 2.623869
374.429400 1.549565
374.645300 1.524571
374.861100 1.059768
375.077000 1.181164
375.292800 4.182329
375.508700 1.150035
375.724600 1.664043
375.940500 1.407500
376.156400 4.224455
376.372400 1.062529
376.588300 1.164437
376.804300 4.234720
377.020300 4.247581
377.236200 1.476571
377.452200 1.749988
377.668200 4.261620
377.884300 1.305633
378.100300 4.253265
378.316400 1.592909
378.532400 2.008577
378.748500 4.301356
378.964600 1.045046
379.180700 1.712897
379.396800 1.826827
379.612900 3.131733
379.829100 1.648477
380.045200 1.137157
380.261400 4.315991
380.477600 1.552672
380.693800 1.818404
380.910000 1.624300
381.126200 2.400684
381.342400 4.319959
381.558700 1.282474
381.774900 4.288607
381.991200 1.623983
382.207500 4.314668
382.423800 1.819226
382.640100 2.797485
382.856400 1.661000
383.072800 1.219131
383.289100 1.711556
383.505500 4.335458
383.721900 4.350442
383.938200 2.190252
384.154600 1.351663
384.371100 1.719731
384.587500 1.025746
384.803900 1.218287
385.020400 4.355509
385.236800 4.356332
385.453300 1.429826
385.669800 2.031072
385.886300 1.140375
386.102800 1.415637
386.319400 2.468021
386.535900 4.371972
386.752500 1.549732
386.969000 1.976738
387.185600 1.115133
387.402200 1.701240
387.618800 4.400573
387.835500 1.143989
388.052100 1.289321
388.268700 4.405654
388.485400 1.106534
388.702100 2.419271
388.918800 0.853379
389.135500 1.374939
389.352200 1.720047
389.568900 1.618012
389.785600 1.282968
390.002400 1.193465
390.219200 1.239605
390.435900 1.456103
390.652700 1.534227
390.869500 1.140383
391.086300 1.208040
391.303200 2.004305
391.520000 1.215063
391.736900 1.100413
391.953700 1.401745
392.170600 4.445028
392.387500 1.239750
392.604400 1.261202
392.821300 1.083751
393.038300 1.196956
393.255200 1.470976
393.472200 1.188671
393.689100 1.007076
393.906100 1.372194
394.123100 0.965064
394.340100 1.111429
394.557200 1.091672
394.774200 1.480562
394.991200 0.993195
395.208300 1.138681
395.425400 0.999012
395.642500 0.936278
395.859600 1.398496
396.076700 1.092846
396.293800 1.066016
396.510900 0.981576
396.728100 0.967663
396.945300 1.032875
397.162400 1.062636
397.379600 0.997703
397.596800 1.200033
397.814000 1.131605
398.031300 1.053920
398.248500 1.043757
398.465800 0.983676
398.683000 1.049270
398.900300 0.850272
399.117600 0.972396
399.334900 0.955386
399.552200 1.037603
399.769600 0.961402
399.986900 0.820491
400.204300 1.065793
400.421600 0.943449
400.639000 0.830569
400.856400 0.845162
401.073800 0.685460
401.291200 0.918201
401.508700 0.865519
401.726100 0.921336
401.943600 0.723644
402.161000 0.831669
402.378500 0.814899
402.596000 0.972447
402.813500 0.765157
403.031000 0.847186
403.248600 0.768286
403.466100 0.763900
403.683700 0.761616
403.901300 0.751079
404.118900 0.788836
404.336500 0.851323
404.554100 0.716443
404.771700 0.733702
404.989300 0.637259
405.207000 0.778590
405.424600 0.742195
405.642300 0.801385
405.860000 0.752442
406.077700 0.645781
406.295400 0.648112
406.513100 0.680277
406.730900 0.667585
406.948600 0.755391
407.166400 0.675508
407.384200 0.623119
407.602000 0.724551
407.819800 0.589852
408.037600 0.770430
408.255400 0.635662
408.473300 0.587624
408.691100 0.586130
408.909000 0.664112
409.126900 0.582808
409.344800 0.644828
409.562700 0.572712
409.780600 0.609148
409.998500 0.598885
410.216500 0.609006
410.434400 0.598457
410.652400 0.693987
410.870400 0.589774
411.088400 0.652936
411.306400 0.618405
411.524400 0.524363
411.742400 0.479147
411.960500 0.615230
412.178500 0.643946
412.396600 0.523867
412.614700 0.552589
412.832800 0.574481
413.050900 0.541515
413.269000 0.525236
413.487100 0.602956
413.705300 0.506430
413.923400 0.563057
414.141600 0.569388
414.359800 0.503529
414.578000 0.530136
414.796200 0.526198
415.014400 0.550228
415.232600 0.434074
415.450900 0.532558
415.669200 0.443254
415.887400 0.566925
416.105700 0.423477
416.324000 0.499222
416.542300 0.454910
416.760600 0.527340
416.979000 0.426855
417.197300 0.449170
417.415700 0.520119
417.634100 0.444847
417.852400 0.479255
418.070800 0.466572
418.289300 0.432690
418.507700 0.504509
418.726100 0.406544
418.944600 0.445516
419.163000 0.445024
419.381500 0.465816
419.600000 0.428621
419.818500 0.468240
420.037000 0.421814
420.255500 0.471507
420.474100 0.416066
420.692600 0.416530
420.911200 0.448436
421.129800 0.418618
421.348300 0.433881
421.566900 0.445509
421.785600 0.381806
422.004200 0.433373
422.222800 0.401033
422.441500 0.411638
422.660100 0.412761
422.878800 0.407162
423.097500 0.392935
423.316200 0.387137
423.534900 0.387888
423.753600 0.434660
423.972400 0.388475
424.191100 0.427088
424.409900 0.388837
424.628700 0.394389
424.847500 0.374289
425.066300 0.367742
425.285100 0.387883
425.503900 0.363345
425.722800 0.375821
425.941600 0.382831
426.160500 0.317752
426.379300 0.402048
426.598200 0.397974
426.817100 0.376446
427.036100 0.403027
427.255000 0.323979
427.473900 0.308312
427.692900 0.381520
427.911800 0.387532
428.130800 0.392484
428.349800 0.341347
428.568800 0.389781
428.787800 0.380458
429.006800 0.381178
429.225900 0.314920
429.444900 0.353638
429.664000 0.318655
429.883100 0.309113
430.102200 0.385734
430.321300 0.357329
430.540400 0.345893
430.759500 0.340776
430.978700 0.304667
431.197800 0.379620
431.417000 0.334356
431.636200 0.342450
431.855300 0.339335
432.074500 0.314847
432.293800 0.364413
432.513000 0.344582
432.732200 0.371949
432.951500 0.313494
433.170700 0.347623
433.390000 0.349162
433.609300 0.355990
433.828600 0.347586
434.047900 0.322003
434.267300 0.333608
434.486600 0.300023
434.705900 0.271481
434.925300 0.314416
435.144700 0.338684
435.364100 0.358823
435.583500 0.314670
435.802900 0.291409
436.022300 0.328586
436.241800 0.323578
436.461200 0.335947
436.680700 0.319746
436.900100 0.371957
437.119600 0.337366
437.339100 0.347128
437.558600 0.320923
437.778200 0.352322
437.997700 0.325949
438.217300 0.329584
438.436800 0.302954
438.656400 0.360249
438.876000 0.321908
439.095600 0.340101
439.315200 0.333259
439.534800 0.302233
439.754500 0.344468
439.974100 0.322367
440.193800 0.361333
440.413500 0.348606
440.633100 0.363078
440.852800 0.375737
441.072500 0.306468
441.292300 0.407032
441.512000 0.327981
441.731800 0.335388
441.951500 0.356567
442.171300 0.361851
442.391100 0.344481
442.610900 0.368978
442.830700 0.297813
443.050500 0.347913
443.270300 0.346841
443.490200 0.356892
443.710100 0.337414
443.929900 0.384624
444.149800 0.332627
444.369700 0.352696
444.589600 0.341916
444.809500 0.368194
445.029500 0.341015
445.249400 0.331951
445.469400 0.384264
445.689400 0.355450
445.909300 0.351740
446.129300 0.384310
446.349300 0.340695
446.569400 0.365859
446.789400 0.380142
447.009400 0.389338
447.229500 0.354104
447.449600 0.373158
447.669600 0.360762
447.889700 0.341508
448.109800 0.370317
448.330000 0.413967
448.550100 0.364143
448.770200 0.374131
448.990400 0.384248
449.210600 0.398805
449.430700 0.355782
449.650900 0.441496
449.871100 0.400861
450.091400 0.358274
450.311600 0.411869
450.531800 0.383316
450.752100 0.377873
450.972400 0.402384
451.192600 0.376921
451.412900 0.421518
451.633200 0.395236
451.853500 0.363142
452.073900 0.411001
452.294200 0.391082
452.514600 0.408060
452.734900 0.414089
452.955300 0.361971
453.175700 0.431050
453.396100 0.380048
453.616500 0.422840
453.836900 0.415852
454.057400 0.468970
454.277800 0.409924
454.498300 0.438913
454.718800 0.426082
454.939300 0.449776
455.159700 0.390376
455.380300 0.433372
455.600800 0.430159
455.821300 0.468810
456.041900 0.408825
456.262400 0.421086
456.483000 0.465952
456.703600 0.427883
456.924200 0.455080
457.144800 0.455216
457.365400 0.381903
457.586000 0.481986
457.806700 0.449081
458.027400 0.464927
458.248000 0.514981
458.468700 0.492480
458.689400 0.488037
458.910100 0.462670
459.130800 0.494138
459.351600 0.445705
459.572300 0.453146
459.793100 0.495460
460.013800 0.525208
460.234600 0.522361
460.455400 0.474851
460.676200 0.484549
460.897000 0.499235
461.117800 0.501438
461.338700 0.539554
461.559500 0.501564
461.780400 0.470271
462.001300 0.524281
462.222200 0.481922
462.443100 0.519009
462.664000 0.474825
462.884900 0.485330
463.105900 0.521682
463.326800 0.552925
463.547800 0.514522
463.768700 0.534746
463.989700 0.535923
464.210700 0.582032
464.431700 0.593820
464.652800 0.560072
464.873800 0.592137
465.094800 0.571755
465.315900 0.602122
465.537000 0.582289
465.758100 0.578110
465.979200 0.614509
466.200300 0.583421
466.421400 0.573320
466.642500 0.646355
466.863700 0.628417
467.084800 0.597979
467.306000 0.598422
467.527200 0.629943
467.748400 0.593734
467.969600 0.650745
468.190800 0.646415
468.412000 0.643292
468.633300 0.621990
468.854500 0.748371
469.075800 0.609540
469.297000 0.710374
469.518300 0.623623
469.739600 0.701100
469.961000 0.663251
470.182300 0.610543
470.403600 0.549548
470.625000 0.630899
470.846300 0.623153
471.067700 0.622954
471.289100 0.671203
471.510500 0.665867
471.731900 0.663510
471.953300 0.674374
472.174800 0.736999
472.396200 0.712990
472.617700 0.659700
472.839100 0.701571
473.060600 0.695295
473.282100 0.742153
473.503600 0.732011
473.725100 0.739469
473.946700 0.685579
474.168200 0.709243
474.389800 0.714627
474.611300 0.766182
474.832900 0.717038
475.054500 0.809125
475.276100 0.740961
475.497700 0.813110
475.719300 0.734591
475.941000 0.730985
476.162600 0.792614
476.384300 0.748321
476.606000 0.760756
476.827700 0.839926
477.049400 0.799431
477.271100 0.715280
477.492800 0.782301
477.714500 0.747883
477.936300 0.726304
478.158000 0.781436
478.379800 0.818694
478.601600 0.791548
478.823400 0.717208
479.045200 0.807753
479.267000 0.893065
479.488800 0.995381
479.710700 0.798522
479.932500 0.795915
480.154400 0.826134
480.376300 0.885428
480.598200 0.905176
480.820100 0.855135
481.042000 0.791630
481.263900 0.948245
481.485900 0.876691
481.707800 0.850804
481.929800 0.897641
482.151700 0.865174
482.373700 0.849297
482.595700 0.873151
482.817700 0.901994
483.039800 0.912397
483.261800 0.874124
483.483800 0.903486
483.705900 0.863165
483.928000 0.923698
484.150100 0.885136
484.372100 0.929946
484.594300 0.899017
484.816400 0.940944
485.038500 0.966590
485.260600 1.047965
485.482800 0.957892
485.705000 1.025804
485.927100 0.981854
486.149300 1.019212
486.371500 1.056455
486.593700 1.093591
486.816000 0.991955
487.038200 0.992361
487.260500 0.968860
487.482700 0.969122
487.705000 0.934093
487.927300 0.931795
488.149600 1.089362
488.371900 0.939425
488.594200 1.057558
488.816500 0.999139
489.038900 0.965448
489.261200 1.037435
489.483600 0.990576
489.706000 0.910497
489.928400 1.037020
490.150800 1.038999
490.373200 1.016637
490.595600 1.053059
490.818000 0.950780
491.040500 0.931516
491.263000 1.037437
491.485400 1.170255
491.707900 1.018511
491.930400 1.091277
492.152900 1.088781
492.375500 1.022310
492.598000 1.133443
492.820500 1.004363
493.043100 1.200559
493.265700 1.134508
493.488200 1.109840
493.710800 1.192234
493.933400 1.027230
494.156100 1.364019
494.378700 1.008194
494.601300 1.283292
494.824000 1.196903
495.046600 1.055715
495.269300 1.061400
495.492000 1.145652
495.714700 1.085214
495.937400 1.264833
496.160100 1.329191
496.382900 1.199566
496.605600 1.012544
496.828400 1.171137
497.051100 1.091327
497.273900 1.333756
497.496700 1.129661
497.719500 1.205238
497.942300 1.148239
498.165200 1.076184
498.388000 1.107081
498.610900 1.250117
498.833700 1.053231
499.056600 1.312311
499.279500 1.129960
499.502400 1.145571
499.725300 1.163433
499.948200 1.197486
500.171200 1.174707
500.394100 1.253680
500.617100 1.071529
500.840000 1.387253
501.063000 1.089749
501.286000 1.318556
501.509000 1.184829
501.732000 1.398485
501.955100 1.057539
502.178100 1.145291
502.401200 1.255437
502.624200 1.114234
502.847300 1.115151
503.070400 1.154984
503.293500 1.188189
503.516600 1.106113
503.739700 1.011059
503.962800 1.192326
504.186000 1.133435
504.409200 1.113216
504.632300 1.150036
504.855500 1.128588
505.078700 1.194903
505.301900 1.038558
505.525100 1.177673
505.748300 1.327597
505.971600 1.289107
506.194800 1.130938
506.418100 1.316131
506.641400 1.290693
506.864700 1.102506
507.088000 1.328990
507.311300 1.218769
507.534600 1.170320
507.757900 1.208229
507.981300 1.168195
508.204600 1.115491
508.428000 1.150990
508.651400 1.132875
508.874800 1.029233
509.098200 1.371340
509.321600 1.189818
509.545000 1.143468
509.768500 1.105313
509.991900 1.266734
510.215400 1.265989
510.438800 1.170911
510.662300 1.146264
510.885800 1.051257
511.109300 1.089745
511.332900 1.209930
511.556400 1.135456
511.779900 1.484946
512.003500 1.085454
512.227000 1.220407
512.450600 1.389840
512.674200 1.039998
512.897800 1.038745
513.121400 1.046137
513.345100 1.249534
513.568700 1.053588
513.792300 1.309269
514.016000 1.409621
514.239700 1.302315
514.463400 1.223548
514.687100 1.420161
514.910800 0.986712
515.134500 1.173604
515.358200 1.044980
515.581900 1.107132
515.805700 0.963019
516.029500 1.203080
516.253200 1.281727
516.477000 1.148326
516.700800 1.198227
516.924600 1.248809
517.148500 1.020847
517.372300 1.129749
517.596100 0.998649
517.820000 1.391764
518.043900 1.070784
518.267700 1.159870
518.491600 1.027598
518.715500 1.190370
518.939500 0.994151
519.163400 1.169893
519.387300 1.047036
519.611300 1.001680
519.835200 1.124182
520.059200 1.056617
520.283200 1.039900
520.507200 1.181773
520.731200 1.216760
520.955200 1.171872
521.179200 1.130192
521.403300 0.986079
521.627300 1.023233
521.851400 1.187996
522.075500 0.960222
522.299600 0.952694
522.523700 1.011662
522.747800 1.046365
522.971900 0.919760
523.196000 1.239717
523.420200 1.219410
523.644300 0.960821
523.868500 1.143610
524.092700 0.857403
524.316900 1.198552
524.541100 1.071573
524.765300 0.935031
524.989500 1.123710
525.213800 0.923728
525.438000 1.013940
525.662300 1.103297
525.886500 1.124058
526.110800 0.880911
526.335100 0.875352
526.559400 0.977858
526.783700 1.012253
527.008100 0.910644
527.232400 0.795357
527.456800 1.086010
527.681100 0.872388
527.905500 0.844031
528.129900 0.980418
528.354300 0.809467
528.578700 0.946258
528.803100 0.962470
529.027600 1.051348
529.252000 0.816184
529.476500 0.890782
529.700900 1.149363
529.925400 0.894054
530.149900 1.040749
530.374400 0.930942
530.598900 0.883563
530.823400 0.869340
531.048000 0.770111
531.272500 0.806377
531.497100 0.943333
531.721700 0.814368
531.946200 0.837720
532.170800 0.773266
532.395400 0.789005
532.620000 0.929802
532.844700 0.897613
533.069300 0.810156
533.294000 0.772243
533.518600 0.746355
533.743300 0.766144
533.968000 0.826224
534.192700 0.844971
534.417400 0.846850
534.642100 0.783960
534.866800 0.776750
535.091600 0.812960
535.316300 0.640722
535.541100 0.725964
535.765900 0.741622
535.990700 0.819160
536.215500 0.773395
536.440300 0.724250
536.665100 0.672327
536.889900 0.674802
537.114800 0.662047
537.339600 0.862235
537.564500 0.694884
537.789400 0.644857
538.014300 0.674889
538.239200 0.687612
538.464100 0.729712
538.689000 0.761738
538.913900 0.680089
539.138900 0.605381
539.363800 0.658514
539.588800 0.682302
539.813800 0.671815
540.038800 0.638053
540.263800 0.667212
540.488800 0.697774
540.713800 0.639171
540.938900 0.626815
541.163900 0.710100
541.389000 0.633411
541.614000 0.618477
541.839100 0.647821
542.064200 0.573190
542.289300 0.614777
542.514400 0.612533
542.739600 0.651039
542.964700 0.509071
543.189900 0.566479
543.415000 0.614199
543.640200 0.591077
543.865400 0.536240
544.090600 0.579159
544.315800 0.538783
544.541000 0.556745
544.766200 0.527904
544.991500 0.551988
545.216700 0.514150
545.442000 0.533781
545.667300 0.573533
545.892600 0.531194
546.117900 0.537783
546.343200 0.537828
546.568500 0.522434
546.793800 0.544766
547.019200 0.537381
547.244500 0.494618
547.469900 0.511208
547.695300 0.488457
547.920600 0.479072
548.146000 0.463932
548.371500 0.464614
548.596900 0.456286
548.822300 0.480693
549.047800 0.460725
549.273200 0.403753
549.498700 0.452649
549.724200 0.438728
549.949600 0.432888
550.175100 0.448941
550.400700 0.415810
550.626200 0.444521
550.851700 0.446657
551.077300 0.420405
551.302800 0.423562
551.528400 0.371603
551.754000 0.396147
551.979600 0.423987
552.205200 0.373095
552.430800 0.408996
552.656400 0.401770
552.882000 0.363590
553.107700 0.379201
553.333300 0.408198
553.559000 0.383557
553.784700 0.371769
554.010400 0.375364
554.236100 0.336217
554.461800 0.366366
554.687500 0.346048
554.913200 0.345028
555.139000 0.368892
555.364800 0.354191
555.590500 0.354733
555.816300 0.343239
556.042100 0.338578
556.267900 0.335154
556.493700 0.344223
556.719500 0.314831
556.945400 0.342204
557.171200 0.313347
557.397100 0.334637
557.623000 0.295022
557.848800 0.302936
558.074700 0.282270
558.300600 0.297922
558.526600 0.250084
558.752500 0.284380
558.978400 0.259798
559.204400 0.272271
559.430300 0.306588
559.656300 0.291909
559.882300 0.275401
560.108300 0.260338
560.334300 0.259308
560.560300 0.253681
560.786300 0.275678
561.012400 0.269053
561.238400 0.264687
561.464500 0.235002
561.690500 0.240148
561.916600 0.231745
562.142700 0.240870
562.368800 0.249403
562.594900 0.274694
562.821100 0.266170
563.047200 0.241449
563.273300 0.241268
563.499500 0.226336
563.725700 0.244669
563.951900 0.208281
564.178100 0.238357
564.404300 0.226334
564.630500 0.236425
564.856700 0.224619
565.082900 0.203453
565.309200 0.219266
565.535500 0.220786
565.761700 0.200154
565.988000 0.212675
566.214300 0.188245
566.440600 0.187170
566.666900 0.203253
566.893200 0.207647
567.119600 0.199915
567.345900 0.185220
567.572300 0.195675
567.798700 0.185677
568.025000 0.190178
568.251400 0.184329
568.477800 0.191412
568.704300 0.190584
568.930700 0.181333
569.157100 0.177087
569.383600 0.167195
569.610000 0.159409
569.836500 0.169854
570.063000 0.168372
570.289500 0.186981
570.516000 0.166689
570.742500 0.163955
570.969000 0.179566
571.195600 0.160170
571.422100 0.164295
571.648700 0.161008
571.875200 0.154924
572.101800 0.162713
572.328400 0.156047
572.555000 0.149939
572.781600 0.156640
573.008200 0.161979
573.234900 0.152554
573.461500 0.140838
573.688200 0.147118
573.914900 0.149639
574.141500 0.142824
574.368200 0.138729
574.594900 0.146562
574.821600 0.135221
575.048400 0.135188
575.275100 0.143358
575.501800 0.136528
575.728600 0.124043
575.955400 0.125590
576.182100 0.134774
576.408900 0.119147
576.635700 0.121827
576.862600 0.128411
577.089400 0.131706
577.316200 0.119257
577.543100 0.125237
577.769900 0.121020
577.996800 0.121124
578.223700 0.119617
578.450500 0.107594
578.677400 0.107957
578.904400 0.107409
579.131300 0.105234
579.358200 0.103927
579.585100 0.098392
579.812100 0.106532
580.039100 0.098686
580.266000 0.104965
580.493000 0.100024
580.720000 0.095370
580.947000 0.088228
581.174100 0.098944
581.401100 0.091320
581.628100 0.099704
581.855200 0.091567
582.082200 0.092980
582.309300 0.090205
582.536400 0.094901
582.763500 0.085512
582.990600 0.073823
583.217700 0.077319
583.444900 0.073730
583.672000 0.083870
583.899100 0.077124
584.126300 0.073591
584.353500 0.077600
584.580700 0.069363
584.807900 0.090844
585.035100 0.080785
585.262300 0.081845
585.489500 0.085755
585.716700 0.085716
585.944000 0.075137
586.171300 0.071932
586.398500 0.067347
586.625800 0.073535
586.853100 0.069557
587.080400 0.071657
587.307700 0.057191
587.535000 0.067173
587.762400 0.064173
587.989700 0.061005
588.217100 0.076524
588.444500 0.064104
588.671800 0.068306
588.899200 0.067224
589.126600 0.059188
589.354000 0.073860
589.581500 0.056319
589.808900 0.057954
590.036300 0.066022
590.263800 0.066627
590.491300 0.050441
590.718700 0.057867
590.946200 0.058721
591.173700 0.058812
591.401200 0.053852
591.628800 0.056869
591.856300 0.060168
592.083800 0.053658
592.311400 0.057648
592.538900 0.054477
592.766500 0.052655
592.994100 0.060988
593.221700 0.063592
593.449300 0.059195
593.676900 0.052612
593.904600 0.054870
594.132200 0.044866
594.359800 0.058081
594.587500 0.052298
594.815200 0.046133
595.042900 0.050078
595.270500 0.053969
595.498300 0.048459
595.726000 0.052132
595.953700 0.052655
596.181400 0.052098
596.409200 0.049710
596.636900 0.059870
596.864700 0.050157
597.092500 0.052596
597.320300 0.059944
597.548100 0.043194
597.775900 0.060103
598.003700 0.058657
598.231500 0.048410
598.459400 0.052864
598.687200 0.057720
598.915100 0.062654
599.143000 0.043456
599.370900 0.053134
599.598800 0.038002
599.826700 0.039717
600.054600 0.052277
600.282500 0.043266
600.510500 0.048009
600.738400 0.031945
600.966400 0.038716
601.194400 0.036791
601.422300 0.026446
601.650300 0.021228
601.878300 0.033288
602.106400 0.039650
602.334400 0.043413
602.562400 0.045961
602.790500 0.044667
603.018500 0.038030
603.246600 0.041306
603.474700 0.037507
603.702800 0.032141
603.930900 0.045791
604.159000 0.043174
604.387100 0.050586
604.615200 0.032404
604.843400 0.030518
605.071500 0.025747
605.299700 0.030502
605.527900 0.025341
605.756100 0.022262
605.984300 0.022359
606.212500 0.031882
606.440700 0.016065
606.668900 0.024208
606.897200 0.022894
607.125400 0.027528
607.353700 0.027046
607.581900 0.021691
607.810200 0.022700
608.038500 0.021033
608.266800 0.015653
608.495100 0.018344
608.723500 0.004282
608.951800 0.026219
609.180100 0.019391
609.408500 0.018396
609.636900 0.018429
609.865300 0.011969
610.093600 0.027200
610.322000 0.025975
610.550500 0.023968
610.778900 0.022288
611.007300 0.033198
611.235700 0.022184
611.464200 0.031742
611.692700 0.018498
611.921100 0.028691
612.149600 0.029445
612.378100 0.034771
612.606600 0.021449
612.835100 0.029767
613.063700 0.020884
613.292200 0.022847
613.520800 0.018054
613.749300 0.021972
613.977900 0.018428
614.206500 0.029980
614.435100 0.019514
614.663700 0.041988
614.892300 0.019815
615.120900 0.010642
615.349500 0.029277
615.578200 0.016642
615.806800 0.023113
616.035500 0.023473
616.264200 0.023651
616.492900 0.019117
616.721600 0.013358
616.950300 0.033025
617.179000 0.012483
617.407700 0.020860
617.636500 0.005202
617.865200 0.019474
618.094000 0.024908
618.322700 0.015054
618.551500 -0.000708
618.780300 0.007134
619.009100 0.011945
619.237900 0.023080
619.466700 -0.002914
619.695600 0.009732
619.924400 0.026949
620.153300 0.016278
620.382100 0.020362
620.611000 0.013860
620.839900 0.005716
621.068800 -0.007230
621.297700 0.022726
621.526600 0.021501
621.755600 0.010814
621.984500 0.008105
622.213500 0.023673
622.442400 0.010918
622.671400 0.033185
622.900400 0.008846
623.129400 0.021501
623.358400 0.013509
623.587400 0.019122
623.816400 0.010260
624.045400 0.025936
624.274500 0.019405
624.503500 0.023362
624.732600 0.015204
624.961700 0.031122
625.190800 0.008710
625.419900 0.005402
625.649000 0.008672
625.878100 0.017151
626.107200 0.005673
626.336400 0.012529
626.565500 0.003429
626.794700 0.003151
627.023800 0.024505
627.253000 0.017767
627.482200 -0.005059
627.711400 0.006120
627.940600 0.024133
628.169800 0.009342
628.399100 -0.010336
628.628300 0.006104
628.857600 0.003522
629.086800 0.001542
629.316100 0.010429
629.545400 0.005269
629.774700 0.015670
630.004000 0.015935
630.233300 0.015120
630.462600 0.007490
630.692000 0.004998
630.921300 0.014277
631.150700 -0.007443
631.380100 0.020375
631.609400 0.023558
631.838800 0.006791
632.068200 -0.010505
632.297600 0.019709
632.527100 0.016504
632.756500 0.010303
632.985900 0.006094
633.215400 -0.005658
633.444800 -0.006049
633.674300 0.012971
633.903800 0.014845
634.133300 -0.012547
634.362800 0.007162
634.592300 0.013650
634.821800 0.003493
635.051400 0.023244
635.280900 0.012294
635.510500 -0.005414
635.740000 -0.016986
635.969600 0.017829
636.199200 0.009965
636.428800 0.002331
636.658400 0.008938
636.888000 0.007524
637.117700 0.025559
637.347300 0.026925
637.577000 -0.005341
637.806600 0.027919
638.036300 0.010802
638.266000 0.005311
638.495700 0.018316
638.725400 0.014027
638.955100 0.010613
639.184800 0.007193
639.414500 0.007831
639.644300 0.007190
639.874000 0.003541
640.103800 -0.017319
640.333600 0.015784
640.563300 -0.001856
640.793100 0.004552
641.022900 -0.009544
641.252800 0.019176
641.482600 0.035915
641.712400 -0.011333
641.942300 0.021964
642.172100 0.044788
642.402000 0.010517
642.631900 -0.004542
642.861700 0.011425
643.091600 0.046287
643.321600 0.008926
643.551500 -0.021929
643.781400 -0.001609
644.011300 0.008681
644.241300 -0.001677
644.471200 0.006941
644.701200 -0.011286
644.931200 -0.001320
645.161200 -0.009224
645.391200 0.023380
645.621200 0.041110
645.851200 -0.010072
646.081200 -0.016433
646.311300 0.006851
646.541300 0.045327
646.771400 -0.032772
647.001500 0.020604
647.231600 0.033654
647.461600 0.007235
647.691800 0.011432
647.921900 -0.027434
648.152000 -0.004276
648.382100 -0.000470
648.612300 -0.002741
648.842400 0.023451
649.072600 0.046733
649.302800 -0.008188
649.532900 0.014932
649.763100 0.010744
649.993300 0.014409
650.223600 0.029626
650.453800 0.003596
650.684000 -0.005519
650.914300 -0.002075
651.144500 0.031543
651.374800 0.036200
651.605100 0.001110
651.835400 -0.034451
652.065700 0.034413
652.296000 0.011522
652.526300 -0.016243
652.756600 0.009438
652.987000 0.015284
653.217300 -0.018479
653.447700 0.002916
653.678000 0.014044
653.908400 0.006744
654.138800 0.029967
654.369200 0.037468
654.599600 0.022629
654.830000 -0.012792
655.060500 0.010203
655.290900 0.008277
655.521300 0.031247
655.751800 0.035834
655.982300 0.002910
656.212800 0.000974
656.443300 0.001458
656.673800 0.001232
656.904300 0.002850
657.134800 0.027437
657.365300 0.022587
657.595900 0.023282
657.826400 0.022472
658.057000 0.023047
658.287500 0.017902
658.518100 0.009213
658.748700 0.021179
658.979300 0.017848
659.209900 -0.000560
659.440600 -0.028991
659.671200 -0.043232
659.901800 -0.057178
660.132500 -0.045537
660.363200 0.024188
660.593800 0.001554
660.824500 -0.026640
661.055200 0.010292
661.285900 0.017739
661.516600 -0.001844
661.747400 0.003842
661.978100 0.003160
662.208800 0.061588
662.439600 0.056570
662.670400 0.011896
662.901100 0.032395
663.131900 0.004153
663.362700 -0.008707
663.593500 -0.010856
663.824300 0.006963
664.055200 0.017188
664.286000 0.031235
664.516800 0.026205
664.747700 0.018683
664.978600 -0.021629
665.209400 0.008459
665.440300 0.038659
665.671200 0.010769
665.902100 0.055923
666.133000 -0.001050
666.364000 0.024570
666.594900 0.001552
666.825900 0.046772
667.056800 0.028065
667.287800 0.035282
667.518800 0.012999
667.749700 0.024244
667.980700 -0.014651
668.211700 -0.045983
668.442800 0.014414
668.673800 0.021490
668.904800 -0.017565
669.135900 0.014813
669.366900 0.048238
669.598000 -0.020910
669.829100 -0.010901
670.060200 -0.031395
670.291300 -0.000496
670.522400 -0.035154
670.753500 0.017431
670.984600 0.044338
671.215700 0.025918
671.446900 0.033327
671.678100 -0.007304
671.909200 -0.003699
672.140400 0.024350
672.371600 0.017876
672.602800 0.030226
672.834000 0.009831
673.065200 0.013930
673.296400 0.001007
673.527700 0.009961
673.758900 -0.009507
673.990200 -0.015559
674.221400 0.009050
674.452700 -0.009429
674.684000 -0.010003
674.915300 0.021550
675.146600 -0.026536
675.377900 -0.013884
675.609300 0.035484
675.840600 0.021061
676.071900 0.019396
676.303300 -0.003525
676.534700 -0.035226
676.766100 -0.001052
676.997400 0.028482
677.228800 0.011473
677.460200 0.026564
677.691700 -0.018636
677.923100 0.027870
678.154500 0.008732
678.386000 0.004337
678.617400 0.010412
678.848900 0.001915
679.080400 0.000998
679.311900 0.002292
679.543400 0.013042
679.774900 -0.003929
680.006400 0.015687
680.237900 0.013365
680.469400 0.013257
680.701000 0.040403
680.932500 -0.003543
681.164100 0.017728
681.395700 0.025205
681.627300 0.003053
681.858900 0.033894
682.090500 0.016040
682.322100 -0.014222
682.553700 -0.008655
682.785400 0.009499
683.017000 0.017124
683.248700 -0.017900
683.480300 0.015433
683.712000 -0.033336
683.943700 0.016161
684.175400 0.017600
684.407100 0.026677
684.638800 0.002151
684.870500 -0.003997
685.102300 0.033954
685.334000 0.013580
685.565800 0.024197
685.797500 0.030119
686.029300 0.002023
686.261100 0.034106
686.492900 0.003878
686.724700 0.018270
686.956500 -0.001838
687.188300 0.007485
687.420200 0.002078
687.652000 0.000179
687.883800 -0.011945
688.115700 -0.023033
688.347600 0.018320
688.579500 0.006295
688.811400 -0.003863
689.043300 0.002605
689.275200 -0.001799
689.507100 0.005543
689.739000 -0.018194
689.971000 0.021544
690.202900 -0.007852
690.434900 -0.021040
690.666900 -0.000863
690.898800 0.000935
691.130800 0.010442
691.362800 0.008962
691.594800 -0.000677
691.826900 0.000746
692.058900 -0.006025
692.290900 0.016564
692.523000 0.019260
692.755000 0.012579
692.987100 0.009500
693.219200 -0.001022
693.451300 0.033340
693.683400 0.023537
693.915500 -0.021288
694.147600 -0.008933
694.379700 0.003610
694.611900 0.000766
694.844000 0.032744
695.076200 -0.004374
695.308300 0.037775
695.540500 0.001466
695.772700 -0.034097
696.004900 0.024983
696.237100 0.011092
696.469300 0.000413
696.701600 0.003305
696.933800 0.009988
697.166000 -0.002355
697.398300 0.031975
697.630600 0.027885
697.862800 0.025411
698.095100 0.029623
698.327400 0.023182
698.559700 0.017569
698.792000 -0.019771
699.024300 0.004011
699.256700 0.010714
699.489000 0.011090
699.721400 0.029821
699.953700 -0.014704
700.186100 -0.011743
700.418500 0.001887
700.650900 0.013242
700.883300 -0.007568
701.115700 0.015972
701.348100 0.007090
701.580600 0.010806
701.813000 -0.002463
702.045400 0.007350
702.277900 0.041361
702.510400 0.003306
702.742900 -0.018162
702.975300 0.010547
703.207800 0.016176
703.440300 0.046091
703.672900 0.051288
703.905400 0.000516
704.137900 0.008346
704.370500 -0.015826
704.603000 0.016018
704.835600 0.019333
705.068200 -0.014677
705.300800 -0.000869
705.533400 0.000246
705.766000 -0.014010
705.998600 0.024975
706.231200 0.015505
706.463800 0.034629
706.696500 0.050698
706.929100 -0.011406
707.161800 -0.020486
707.394500 0.008502
707.627200 -0.007102
707.859900 0.035125
708.092600 0.023862
708.325300 0.029797
708.558000 0.012239
708.790700 0.002732
709.023500 0.055309
709.256200 -0.012301
709.489000 -0.009409
709.721700 -0.018841
709.954500 -0.003824
710.187300 -0.015365
710.420100 0.016116
710.652900 -0.003409
710.885700 0.001572
711.118600 -0.026428
711.351400 -0.007531
711.584200 -0.003661
711.817100 0.003388
712.050000 -0.003445
712.282800 -0.008695
712.515700 -0.012116
712.748600 -0.004772
712.981500 -0.010848
713.214400 0.020229
713.447400 -0.025335
713.680300 -0.033154
713.913200 -0.017204
714.146200 -0.024690
714.379100 -0.007556
714.612100 -0.012084
714.845100 0.033255
715.078100 0.014323
715.311100 -0.029793
715.544100 0.002690
715.777100 0.009902
716.010200 -0.007106
716.243200 -0.031768
716.476200 0.014884
716.709300 -0.009697
716.942400 0.028275
717.175400 -0.002287
717.408500 -0.001141
717.641600 -0.039344
717.874700 -0.025891
718.107800 -0.002756
718.341000 0.000143
718.574100 -0.031351
718.807200 0.004806
719.040400 0.029239
719.273600 0.017391
719.506700 0.013146
719.739900 0.016432
719.973100 -0.021993
720.206300 -0.000479
720.439500 0.027745
720.672700 -0.006120
720.906000 0.014912
721.139200 -0.005639
721.372500 0.018605
721.605700 0.010856
721.839000 0.012053
722.072300 0.014267
722.305500 -0.005401
722.538800 0.013345
722.772100 -0.025983
723.005500 -0.028940
723.238800 0.014066
723.472100 -0.013995
723.705500 -0.024770
723.938800 -0.005817
724.172200 -0.007087
724.405600 -0.010989
724.638900 0.041577
724.872300 -0.008641
725.105700 0.011544
725.339100 0.015101
725.572600 0.001484
725.806000 -0.034413
726.039400 -0.011148
726.272900 0.019991
726.506300 0.007957
726.739800 0.006690
726.973300 0.022114
727.206800 0.009160
727.440300 0.007941
727.673800 -0.012634
727.907300 0.021736
728.140800 -0.006955
728.374300 -0.006570
728.607900 -0.000199
728.841400 -0.001407
729.075000 0.017070
729.308600 -0.013234
729.542100 0.011122
729.775700 0.010316
730.009300 -0.008377
730.242900 -0.003608
730.476600 0.033680
730.710200 0.029695
730.943800 0.018599
731.177500 0.033305
731.411100 -0.004994
731.644800 0.018562
731.878500 -0.002535
732.112200 0.002369
732.345800 0.010710
732.579500 0.014312
732.813300 0.001225
733.047000 0.000915
733.280700 0.049486
733.514500 0.016174
733.748200 0.018785
733.982000 0.019827
734.215700 -0.000786
734.449500 0.018309
734.683300 0.017586
734.917100 0.004836
735.150900 -0.001583
735.384700 0.008356
735.618500 0.005508
735.852400 0.008357
736.086200 -0.000251
736.320100 -0.012882
736.553900 0.009211
736.787800 -0.004107
737.021700 0.012799
737.255600 0.005967
737.489500 0.002591
737.723400 -0.003521
737.957300 0.000112
738.191200 -0.033473
738.425200 0.005860
738.659100 0.019593
738.893100 -0.024875
739.127100 0.026891
739.361000 0.018285
739.595000 0.016063
739.829000 -0.008140
740.063000 -0.013161
740.297000 -0.003203
740.531000 0.026995
740.765100 -0.023613
740.999100 0.007415
741.233200 0.014221
741.467200 0.015034
741.701300 0.006129
741.935400 -0.006280
742.169500 -0.001280
742.403600 -0.018003
742.637700 -0.014295
742.871800 -0.015405
743.105900 0.021400
743.340000 -0.020747
743.574200 -0.020355
743.808300 0.001188
744.042500 -0.035597
744.276700 0.011591
744.510800 0.007841
744.745000 -0.014157
744.979200 0.010098
745.213400 0.007988
745.447700 0.007211
745.681900 -0.039516
745.916100 0.012774
746.150400 0.014808
746.384600 0.023901
746.618900 -0.015445
746.853200 0.001938
747.087400 -0.022956
747.321700 0.000243
747.556000 -0.024710
747.790300 0.040775
748.024700 -0.022114
748.259000 -0.009390
748.493300 -0.014894
748.727700 -0.016583
748.962000 0.002561
749.196400 0.026028
749.430800 0.028157
749.665200 -0.003935
749.899500 -0.027112
750.133900 0.003581
750.368400 -0.009264
750.602800 0.003831
750.837200 -0.009498
751.071700 0.029781
751.306100 -0.006221
751.540600 -0.026280
751.775000 0.039355
752.009500 0.036911
752.244000 -0.010855
752.478500 -0.014713
752.713000 0.014348
752.947500 -0.004437
753.182000 0.033264
753.416600 -0.016661
753.651100 0.038069
753.885600 0.005795
754.120200 0.033030
754.354800 -0.035712
754.589400 0.016673
754.823900 0.043621
755.058500 0.013532
755.293100 -0.007338
755.527800 -0.007551
755.762400 0.014492
755.997000 0.011901
756.231700 0.004318
756.466300 0.023091
756.701000 0.002586
756.935600 0.004936
757.170300 -0.003052
757.405000 0.032933
757.639700 0.004982
757.874400 0.020114
758.109100 0.018583
758.343800 0.020816
758.578600 -0.006975
758.813300 0.007543
759.048100 0.006641
759.282800 0.015743
759.517600 0.003008
759.752400 0.014376
759.987200 0.020143
760.222000 0.017250
760.456800 0.015466
760.691600 0.009378
760.926400 0.004634
761.161300 0.013147
761.396100 -0.012704
761.631000 0.003437
761.865800 0.019986
762.100700 0.023965
762.335600 0.006380
762.570500 0.006590
762.805400 -0.004436
763.040300 -0.007378
763.275200 -0.003696
763.510100 0.015256
763.745000 0.022336
763.980000 0.014048
764.214900 -0.011530
764.449900 0.022817
764.684900 0.002626
764.919800 0.003576
765.154800 0.002868
765.389800 0.028482
765.624800 0.021132
765.859900 0.010446
766.094900 0.011505
766.329900 0.015019
766.565000 -0.007579
766.800000 -0.011621
767.035100 0.005629
767.270100 0.030039
767.505200 0.007353
767.740300 0.012514
767.975400 -0.012508
768.210500 0.005570
768.445600 -0.018308
768.680800 -0.006915
768.915900 0.017298
769.151000 -0.003688
769.386200 0.007123
769.621400 -0.005965
769.856500 0.018521
770.091700 0.012669
770.326900 0.013366
770.562100 -0.011468
770.797300 0.017236
771.032500 0.019040
771.267700 0.012243
771.503000 -0.005511
771.738200 0.037660
771.973500 -0.001656
772.208700 -0.004626
772.444000 0.018154
772.679300 0.000581
772.914600 0.012067
773.149900 -0.029951
773.385200 -0.011479
773.620500 -0.001508
773.855800 0.024331
774.091100 -0.004223
774.326500 0.028164
774.561800 0.014179
774.797200 0.017294
775.032600 0.055576
775.267900 -0.036751
775.503300 -0.014526
775.738700 -0.021229
775.974100 -0.008630
776.209500 -0.004737
776.445000 0.011938
776.680400 0.014614
776.915800 0.006163
777.151300 0.010290
777.386800 -0.016827
777.622200 -0.001230
777.857700 -0.033552
778.093200 0.039082
778.328700 -0.005463
778.564200 0.014164
778.799700 0.014960
779.035200 0.029077
779.270700 0.009006
779.506300 -0.000612
779.741800 -0.022761
779.977400 -0.014465
780.213000 -0.002655
780.448500 0.015405
780.684100 -0.014691
780.919700 0.001951
781.155300 -0.017716
781.390900 0.015511
781.626500 0.004822
781.862200 0.013847
782.097800 -0.000573
782.333500 -0.018856
782.569100 0.008907
782.804800 -0.019780
783.040500 -0.022156
783.276100 -0.012689
783.511800 0.001913
783.747500 -0.009371
783.983200 -0.001934
784.219000 -0.001012
784.454700 -0.034642
784.690400 0.011142
784.926200 0.006901
785.161900 0.020535
785.397700 0.016998
785.633500 -0.013310
785.869200 0.004992
786.105000 -0.001383
786.340800 0.003555
786.576600 -0.006636
786.812400 0.015904
787.048300 0.019759
787.284100 0.022760
787.519900 -0.011215
787.755800 0.008620
787.991700 0.011515
788.227500 0.005912
788.463400 -0.012547
788.699300 0.014777
788.935200 0.012861
789.171100 0.025544
789.407000 -0.025459
789.642900 -0.006700
789.878900 0.024576
790.114800 0.024370
790.350700 -0.005041
790.586700 0.016886
790.822700 0.025971
791.058600 0.005931
791.294600 0.011839
791.530600 0.009708
791.766600 -0.009958
792.002600 0.028197
792.238700 -0.011559
792.474700 0.011987
792.710700 -0.004127
792.946800 -0.032648
793.182800 0.030674
793.418900 -0.002107
793.655000 -0.026902
793.891000 0.030995
794.127100 0.033261
794.363200 0.014211
794.599300 -0.026483
794.835500 -0.016714
795.071600 0.008560
795.307700 0.006970
795.543900 0.025226
795.780000 0.009236
796.016200 0.018106
796.252300 0.034664
796.488500 0.033519
796.724700 0.032192
796.960900 -0.001729
797.197100 0.008451
797.433300 -0.044101
797.669500 0.011230
797.905800 0.012780
798.142000 0.027492
798.378300 -0.019734
798.614500 0.033789
798.850800 0.015482
799.087100 -0.013835
799.323300 0.004713
799.559600 0.021477
799.795900 0.052007
800.032200 -0.009444
800.268600 0.011201
800.504900 -0.020138
800.741200 -0.008689
800.977600 0.032497
801.213900 0.006864
801.450300 0.040410
801.686700 0.015115
801.923000 0.025477
802.159400 -0.036421
802.395800 -0.014250
802.632200 -0.007789
802.868600 -0.015518
803.105100 -0.000809
803.341500 0.006191
803.577900 0.013162
803.814400 -0.006385
804.050800 0.007668
804.287300 0.043624
804.523800 -0.024580
804.760300 0.038485
804.996800 -0.028387
805.233300 0.006749
805.469800 0.011016
805.706300 -0.011421
805.942800 -0.050423
806.179400 -0.026391
806.415900 -0.008017
806.652500 -0.013968
806.889000 0.068632
807.125600 0.016626
807.362200 0.040514
807.598800 0.003030
807.835400 0.000893
808.072000 -0.016198
808.308600 0.057122
808.545200 0.031518
808.781800 -0.020459
809.018500 0.007401
809.255100 0.006799
809.491800 -0.000949
809.728400 0.021332
809.965100 0.019192
810.201800 -0.000966
810.438500 -0.023747
810.675200 -0.012086
810.911900 0.003299
811.148600 0.037956
811.385300 -0.002683
811.622100 0.027982
811.858800 -0.053685
812.095600 -0.061386
812.332300 0.048117
812.569100 -0.015323
812.805900 -0.013419
813.042700 -0.043900
813.279500 0.011892
813.516300 0.002475
813.753100 0.042792
813.989900 -0.021559
814.226700 0.027332
814.463600 0.010659
814.700400 -0.005246
814.937300 0.018516
815.174200 -0.003296
815.411000 0.037104
815.647900 -0.056409
815.884800 0.022152
816.121700 0.026126
816.358600 -0.053945
816.595500 0.015832
816.832400 0.013929
817.069400 0.034253
817.306300 0.000029
817.543300 -0.012857
817.780200 -0.089254
818.017200 0.074138
818.254200 0.009214
818.491200 0.014434
818.728200 0.031415
818.965200 0.005505
819.202200 0.000102
819.439200 0.036403
819.676200 -0.006599
819.913300 -0.024701
820.150300 -0.032446
820.387400 -0.017052
820.624400 0.073152
820.861500 0.000294
821.098600 0.040912
821.335700 0.055733
821.572700 0.018610
821.809900 0.021991
822.047000 0.017507
822.284100 -0.025567
822.521200 0.045090
822.758400 -0.017052
822.995500 0.021183
823.232700 0.071699
823.469800 0.036468
823.707000 -0.022503
823.944200 0.005809
824.181400 -0.004305
824.418600 0.086552
824.655800 -0.072035
824.893000 -0.022088
825.130200 0.022390
825.367500 -0.033813
825.604700 0.030970
825.841900 0.022147
826.079200 0.005332
826.316500 0.003344
826.553700 -0.026605
826.791000 0.071675
827.028300 0.012339
827.265600 -0.006597
827.502900 -0.011880
827.740200 0.037840
827.977600 -0.019944
828.214900 0.068193
828.452200 0.026116
828.689600 0.055175
828.927000 -0.001663
829.164300 -0.039120
829.401700 -0.081722
829.639100 0.050852
829.876500 -0.048852
830.113900 -0.009797
830.351300 -0.007986
830.588700 -0.065809
830.826100 -0.042203
831.063600 -0.039623
831.301000 0.013454
831.538500 -0.031780
831.775900 0.065077
832.013400 -0.001306
832.250900 -0.069213
832.488400 0.079935
832.725900 0.068594
832.963400 0.047193
833.200900 0.032394
833.438400 -0.005084
833.675900 0.052352
833.913500 0.019781
834.151000 0.036289
834.388600 0.007370
834.626100 -0.027343
834.863700 -0.020248
835.101300 0.023681
835.338900 -0.013665
835.576500 0.030296
835.814100 -0.006528
836.051700 -0.048973
836.289300 0.041906
836.526900 -0.000758
836.764600 0.020658
837.002200 0.101552
837.239900 0.060863
837.477500 -0.102791
837.715200 -0.089145
837.952900 -0.003827
838.190600 0.029558
838.428300 -0.037244
838.666000 -0.020553
838.903700 -0.017108
839.141400 0.033770
839.379100 -0.147072
839.616900 -0.121155
839.854600 0.053032
840.092400 0.086568
840.330200 0.084920
840.567900 0.040703
840.805700 -0.046903
841.043500 0.068563
841.281300 0.015661
841.519100 0.111503
841.756900 0.059711
841.994700 0.013817
842.232600 0.173590
842.470400 0.049692
842.708200 -0.136366
842.946100 0.060560
843.184000 -0.083564
843.421800 0.009120
843.659700 0.000768
843.897600 -0.164598
844.135500 0.066654
844.373400 -0.076855
844.611300 0.046250
844.849200 0.128844
845.087200 -0.066345
845.325100 0.124027
845.563100 0.087951
845.801000 -0.035817
846.039000 0.058520
846.277000 0.035837
846.514900 -0.046627
846.752900 -0.198895
846.990900 -0.051227
847.228900 -0.112512
847.466900 0.118665
847.705000 -0.007673
847.943000 -0.075320
848.181000 0.097798
848.419100 -0.044595
848.657100 0.020440
848.895200 0.058942
849.133300 0.096930
849.371300 0.211548
849.609400 0.024824
849.847500 -0.007469
850.085600 -0.094326
850.323700 0.043131
850.561900 -0.015757
850.800000 0.065273
851.038100 0.000000
851.276300 -0.028029
851.514400 -0.129153
851.752600 0.141677
851.990800 -0.006293
852.228900 -0.032120
852.467100 0.083396
852.705300 -0.027267
852.943500 -0.006007
853.181700 0.079524
853.420000 -0.023477
853.658200 -0.001923
853.896400 0.029544
854.134700 0.002371
854.372900 0.013213
854.611200 0.014561
854.849500 0.122313
855.087700 0.019105
855.326000 0.058586
855.564300 -0.027371
855.802600 0.072761
856.040900 0.021483
856.279200 -0.014407
856.517600 -0.004862
856.755900 -0.010071
856.994200 -0.059848
857.232600 -0.000605
857.471000 0.053022
857.709300 0.074012
857.947700 -0.017234
858.186100 0.044714
858.424500 -0.074184
858.662900 0.036169
858.901300 0.008475
859.139700 -0.028967
859.378100 -0.024891
859.616600 0.026135
859.855000 0.016146
860.093500 -0.015329
860.331900 0.078944
860.570400 0.099342
860.808900 0.060843
861.047300 0.052318
861.285800 -0.039026
861.524300 0.082804
861.762800 -0.024633
862.001300 0.082081
862.239900 0.052510
862.478400 -0.063645
862.716900 0.103230
862.955500 -0.082114
863.194000 -0.062678
863.432600 0.125283
863.671200 0.081332
863.909800 -0.032042
864.148300 -0.015290
864.386900 0.038925
864.625500 -0.021644
864.864200 0.132281
865.102800 -0.068708
865.341400 0.032060
865.580000 -0.033921
865.818700 -0.009658
866.057300 -0.006975
866.296000 0.014185
866.534700 0.038043
866.773300 0.058373
867.012000 0.016727
867.250700 0.081139
867.489400 -0.126926
867.728100 -0.037030
867.966900 0.041709
868.205600 0.038616
868.444300 0.082328
868.683100 0.032279
868.921800 0.031065
869.160600 0.000000
869.399300 0.040596
869.638100 0.114356
869.876900 0.051856
870.115700 -0.150588
870.354500 0.114454
870.593300 -0.100156
870.832100 -0.017010
871.070900 0.120602
871.309700 -0.045757
871.548600 0.091693
871.787400 -0.051277
872.026300 -0.072127
872.265100 0.049574
872.504000 -0.059817
872.742900 0.068480
872.981800 0.276985
873.220700 -0.061999
873.459600 0.012228
873.698500 0.072084
873.937400 0.088803
874.176300 0.037571
874.415300 0.025467
874.654200 0.043536
874.893200 0.051315
875.132100 -0.146478
875.371100 -0.077611
875.610100 0.098462
875.849100 0.025299
876.088000 -0.041425
876.327000 0.197196
876.566100 -0.046605
876.805100 0.138183
877.044100 -0.054053
877.283100 -0.135932
877.522200 -0.022022
877.761200 0.006623
878.000300 0.124675
878.239300 0.014382
878.478400 -0.049303
878.717500 -0.121142
878.956600 -0.021555
879.195700 0.031534
879.434800 -0.103214
879.673900 0.100926
879.913000 0.016533
880.152100 -0.025413
880.391300 -0.029319
880.630400 0.000802
880.869600 -0.013273
881.108700 -0.010030
881.347900 0.042670
881.587100 0.013172
881.826200 -0.013025
882.065400 0.059784
882.304600 -0.063887
882.543800 -0.071883
882.783100 0.045394
883.022300 -0.020739
883.261500 0.019259
883.500700 -0.067988
883.740000 -0.038460
883.979200 0.067525
884.218500 -0.008673
884.457800 0.003027
884.697100 0.076453
884.936300 0.093083
885.175600 0.055610
885.414900 -0.020124
885.654200 -0.078724
885.893600 -0.106951
886.132900 -0.015619
886.372200 -0.007582
886.611600 -0.080576
886.850900 -0.058477
887.090300 0.039899
887.329600 0.121883
887.569000 -0.071774
887.808400 -0.097771
888.047800 -0.096639
888.287200 -0.141688
888.526600 -0.096910
888.766000 -0.118007
889.005400 -0.010261
889.244800 -0.149740
889.484300 -0.161172
889.723700 0.072389
889.963200 0.033844
890.202600 0.054798
890.442100 -0.017053
890.681600 -0.036187
890.921100 0.095587
891.160600 0.011285
891.400100 0.011710
891.639600 -0.018000
891.879100 0.044099
892.118600 -0.034384
892.358100 -0.117244
892.597700 0.072745
892.837200 0.131617
893.076800 0.114271
893.316300 -0.111179
893.555900 0.006985
893.795500 0.064711
894.035100 0.031798
894.274700 0.008885
894.514300 0.017119
894.753900 0.045646
894.993500 -0.035538
895.233100 -0.090652
895.472700 0.030081
895.712400 0.073376
895.952000 -0.023903
896.191700 0.033392
896.431400 0.181456
896.671000 0.068538
896.910700 0.031119
897.150400 0.085112
897.390100 0.079290
897.629800 0.053238
897.869500 -0.094168
898.109200 -0.002721
898.348900 -0.062240
898.588700 0.059055
898.828400 0.096439
899.068200 0.016466
899.307900 0.049338
899.547700 -0.048171
899.787500 0.061934
900.027200 -0.046663
900.267000 -0.103499
900.506800 0.033819
900.746600 -0.007296
900.986400 0.077431
901.226300 -0.058135
901.466100 0.059716
901.705900 0.019915
901.945800 0.020962
902.185600 0.077486
902.425500 0.170676
902.665400 -0.048538
902.905200 0.102014
903.145100 -0.049617
903.385000 -0.055854
903.624900 0.122554
903.864800 0.034323
904.104700 0.013780
904.344600 0.016583
904.584600 -0.045561
904.824500 -0.082108
905.064400 -0.034675
905.304400 0.049574
905.544400 -0.004333
905.784300 0.126836
906.024300 0.002458
906.264300 -0.101301
906.504300 0.061680
906.744300 0.055653
906.984300 0.057113
907.224300 -0.001008
907.464300 0.024218
907.704300 0.000000
907.944400 -0.062468
908.184400 -0.004946
908.424500 -0.109402
908.664500 -0.011814
908.904600 -0.068626
909.144700 -0.118854
909.384700 0.166810
909.624800 0.172090
909.864900 0.080706
910.105000 0.145326
910.345200 -0.125159
910.585300 -0.111293
910.825400 0.228897
911.065500 -0.146873
911.305700 0.141010
911.545800 0.013227
911.786000 -0.038102
912.026200 -0.045629
912.266300 0.107131
912.506500 0.019919
912.746700 0.014669
912.986900 -0.099033
913.227100 -0.113504
913.467300 0.054682
913.707500 -0.075850
913.947800 0.136276
914.188000 0.047986
914.428300 -0.073891
914.668500 0.036106
914.908800 -0.083227
915.149000 -0.095274
915.389300 0.113211
915.629600 0.127897
915.869900 0.054221
916.110200 -0.177716
916.350500 -0.047839
916.590800 -0.115386
916.831100 0.045815
917.071400 0.067787
917.311800 -0.005849
917.552100 0.144272
917.792500 0.121001
918.032800 0.004756
918.273200 0.132019
918.513600 0.323375
918.753900 0.103663
918.994300 0.069507
919.234700 0.227012
919.475100 -0.011760
919.715500 0.031944
919.956000 0.031738
920.196400 0.178151
920.436800 -0.040833
920.677300 -0.125769
920.917700 -0.010156
921.158200 0.079112
921.398600 0.090402
921.639100 0.209168
921.879600 0.095629
922.120100 -0.143356
922.360600 0.126362
922.601100 -0.078175
922.841600 0.025108
923.082100 0.031306
923.322600 0.105015
923.563100 0.048660
923.803700 -0.075901
924.044200 0.008824
924.284800 0.201822
924.525400 -0.162892
924.765900 0.031237
925.006500 -0.044839
925.247100 -0.177243
925.487700 0.062965
925.728300 0.007227
925.968900 -0.042351
926.209500 0.121155
926.450100 -0.022424
926.690800 0.115906
926.931400 -0.119702
927.172000 -0.077048
927.412700 0.011921
927.653300 0.219823
927.894000 -0.178179
928.134700 0.140396
928.375400 -0.014383
928.616100 0.124396
928.856800 -0.059728
929.097500 0.117310
929.338200 0.018149
929.578900 0.101451
929.819600 0.007038
930.060400 -0.069940
930.301100 0.290930
930.541900 -0.171465
930.782600 0.271704
931.023400 0.138509
931.264200 0.184355
931.504900 0.109662
931.745700 0.208736
931.986500 -0.110923
932.227300 0.016199
932.468100 0.072915
932.708900 -0.158914
932.949800 0.331113
933.190600 -0.036808
933.431400 0.203531
933.672300 0.358521
933.913100 0.243281
934.154000 0.055262
934.394900 -0.176902
934.635800 -0.190361
934.876600 -0.023233
935.117500 0.382404
935.358400 0.048249
935.599300 0.425144
935.840300 -0.122994
936.081200 0.099577
936.322100 -0.056959
936.563000 0.035729
936.804000 0.300702
937.044900 -0.030269
937.285900 -0.199836
937.526900 -0.004321
937.767800 0.193648
938.008800 -0.124992
938.249800 0.043111
938.490800 -0.050440
938.731800 -0.080865
938.972800 0.192615
939.213800 0.146316
939.454900 0.037704
939.695900 0.410252
939.936900 0.002477
940.178000 0.051885
940.419000 -0.324073
940.660100 0.256087
940.901200 -0.110113
941.142200 2.913814
941.383300 -0.037036
941.624400 -0.045268
941.865500 0.037389
942.106600 0.459542
942.347700 -0.132546
942.588900 0.215028
942.830000 -0.033711
943.071100 0.044677
943.312300 0.269359
943.553400 -0.002368
943.794600 -0.117552
944.035700 0.045310
944.276900 -0.064069
944.518100 -0.119280
944.759300 0.072951
945.000500 -0.106624
945.241700 0.131705
945.482900 0.318045
945.724100 0.518178
945.965300 0.110896
946.206600 -0.031527
946.447800 3.063333
946.689100 3.242293
946.930300 -0.474019
947.171600 0.498535
947.412800 0.016402
947.654100 -0.159156
947.895400 0.194807
948.136700 0.137470
948.378000 -0.090889
948.619300 0.905736
948.860600 -0.107254
949.101900 0.286899
949.343300 -0.233289
949.584600 0.108413
949.825900 -0.136967
950.067300 0.998939
950.308600 -0.255324
950.550000 -0.055175
950.791400 -0.234365
951.032700 -0.475761
951.274100 -0.174288
951.515500 0.847033
951.756900 0.124142
951.998300 -0.051207
952.239800 0.116607
952.481200 -0.057623
952.722600 -0.260646
952.964000 0.251338
953.205500 3.198382
953.446900 -0.056315
953.688400 0.165616
953.929900 0.798873
954.171300 -0.620083
954.412800 -0.317756
954.654300 -0.126226
954.895800 -0.410900
955.137300 -0.351624
955.378800 3.111934
955.620300 -0.141299
955.861800 0.348740
956.103400 -0.060913
956.344900 -0.011288
956.586500 0.433856
956.828000 0.138360
957.069600 -0.195380
957.311100 -0.337091
957.552700 0.378304
957.794300 -0.044159
958.035900 2.840106
958.277500 -0.382524
958.519100 3.125806
958.760700 0.131143
959.002300 -0.342054
959.243900 -0.121589
959.485600 0.300506
959.727200 -0.123087
959.968800 -0.261284
960.210500 0.698495
960.452200 0.269024
960.693800 -0.101697
960.935500 0.000000
961.177200 -0.166859
961.418900 -0.501820
961.660600 0.651640
961.902300 0.019609
962.144000 -0.329577
962.385700 2.791691
962.627400 0.160553
962.869200 0.509816
963.110900 -0.157477
963.352700 -0.222100
963.594400 0.017817
963.836200 0.249057
964.077900 -0.023528
964.319700 0.211825
964.561500 0.706310
964.803300 3.139249
965.045100 0.327913
965.286900 0.300329
965.528700 -0.555024
965.770500 0.508996
966.012300 0.030795
966.254200 -0.382078
966.496000 -0.556669
966.737900 0.686998
966.979700 3.209783
967.221600 2.833784
967.463400 -0.087660
967.705300 0.037677
967.947200 -0.407668
968.189100 2.510545
968.431000 -0.053985
968.672900 0.407527
968.914800 0.009419
969.156700 -0.177651
969.398700 -0.430833
969.640600 -0.952044
969.882500 -0.128222
970.124500 -0.816277
970.366400 0.029676
970.608400 0.733339
970.850400 -0.223876
971.092300 2.890421
971.334300 -0.291603
971.576300 2.598791
971.818300 0.608294
972.060300 0.078881
972.302300 0.755253
972.544300 0.225247
972.786400 0.350809
973.028400 3.206826
973.270400 0.152596
973.512500 -0.052706
973.754500 0.436255
973.996600 0.295787
974.238700 0.003087
974.480700 -0.216340
974.722800 3.171434
974.964900 2.859739
975.207000 0.107824
975.449100 2.338456
975.691200 0.221459
975.933300 -0.274701
976.175500 -2.750508
976.417600 0.433104
976.659700 -0.072247
976.901900 1.135112
977.144000 3.192567
977.386200 2.745075
977.628300 0.586348
977.870500 3.139249
978.112700 -0.308946
978.354900 -0.338637
978.597100 0.295556
978.839300 0.780315
979.081500 -0.190074
979.323700 0.000000
979.565900 -0.545546
979.808200 0.253719
980.050400 0.164136
980.292600 -0.084471
980.534900 0.101147
980.777100 -0.121795
981.019400 -0.317221
981.261700 0.065991
981.504000 0.187521
981.746200 -1.346632
981.988500 -0.223279
982.230800 2.805501
982.473100 0.122530
982.715500 0.341215
982.957800 0.408405
983.200100 2.990339
983.442400 2.610660
983.684800 -0.308209
983.927100 -0.032304
984.169500 1.839298
984.411800 2.902547
984.654200 -0.530946
984.896600 3.082785
985.139000 -1.032002
985.381400 0.432595
985.623800 3.218010
985.866200 0.042182
986.108600 -1.995635
986.351000 3.089905
986.593400 -0.182397
986.835800 -0.175987
987.078300 -0.410926
987.320700 2.940516
987.563200 2.700704
987.805600 -0.423876
988.048100 0.337340
988.290600 0.213880
988.533100 0.000000
988.775600 2.980458
989.018000 1.367090
989.260500 0.695425
989.503100 -3.236537
989.745600 -0.830873
989.988100 -2.460898
990.230600 -0.009945
990.473200 -0.150140
990.715700 0.948048
990.958200 2.523746
991.200800 -0.496721
991.443400 0.000000
991.685900 2.710117
991.928500 -3.077731
992.171100 -0.592146
992.413700 3.125806
992.656300 1.617599
992.898900 0.248239
993.141500 0.008419
993.384100 -0.127000
993.626700 3.093772
993.869400 -0.005990
994.112000 -0.168332
994.354700 0.673883
994.597300 3.030195
994.840000 0.000000
995.082600 -0.847352
995.325300 2.269513
995.568000 -0.059687
995.810700 -1.014658
996.053400 -0.410863
996.296100 -0.226861
996.538800 0.058892
996.781500 1.175506
997.024200 -1.058331
997.267000 1.247623
997.509700 0.834491
997.752400 2.768638
997.995200 0.479444
998.237900 0.021232
998.480700 -0.351374
998.723500 0.000000
998.966200 -0.081656
999.209000 0.000000
999.451800 0.577380
999.694600 3.025715
999.937400 -0.558732
1000.180200 0.522349
1000.423000 0.189713
1000.665900 0.336240
1000.908700 -0.649905
1001.151500 -0.394019
1001.394400 2.745075
1001.637200 -0.049942
1001.880100 -0.765917
1002.123000 2.840106
1002.365800 2.599883
1002.608700 -0.188608
1002.851600 2.913284
1003.094500 0.024154
1003.337400 2.217484
1003.580300 -2.911690
1003.823200 2.414973
1004.066100 1.401893
1004.309100 -0.388218
1004.552000 -0.188956
1004.794900 0.148603
1005.037900 3.129368
1005.280800 0.345282
1005.523800 3.183555
1005.766700 2.783904
1006.009700 -0.014931
1006.252700 0.000000
1006.495700 -0.098777
1006.738700 -2.838849
1006.981700 0.518038
1007.224700 2.653213
1007.467700 -0.741908
1007.710700 0.119298
1007.953800 0.060481
1008.196800 0.140900
1008.439800 0.250863
1008.682900 2.691965
1008.925900 -0.242641
1009.169000 2.884229
1009.412100 0.000000
1009.655100 2.008600
1009.898200 -0.101020
1010.141300 -0.443826
1010.384400 0.173988
1010.627500 -0.591535
1010.870600 -0.081746
1011.113700 0.406024
1011.356800 -0.416336
1011.600000 -1.159444
1011.843100 0.411258
1012.086300 0.000000
1012.329400 1.020921
1012.572600 -2.900367
1012.815700 -0.253921
1013.058900 0.000000
1013.302100 0.152022
1013.545200 -0.013565
1013.788400 3.108227
1014.031600 -2.810904
1014.274800 3.075182
1014.518000 0.427967
1014.761300 0.049137
1015.004500 -3.236537
1015.247700 2.940516
1015.490900 0.000000
1015.734200 0.400951
1015.977400 2.450249
1016.220700 -2.595496
1016.464000 0.281381
1016.707200 -0.743661
1016.950500 2.378398
1017.193800 0.758729
1017.437100 -0.219463
1017.680400 0.494065
1017.923700 2.975891
1018.167000 3.231724
1018.410300 2.643453
1018.653600 -0.050917
1018.896900 0.077120
1019.140300 0.434699
1019.383600 1.118690
1019.627000 -0.156698
1019.870300 2.465383
1020.113700 3.183555
1020.357100 -0.487018
1020.600400 -0.010813
1020.843800 0.373420
1021.087200 0.072286
1021.330600 -3.054230
1021.574000 0.761146
1021.817400 -2.618048
1022.060800 0.000000
1022.304200 -2.900367
1022.547700 2.902003
1022.791100 2.432969
1023.034500 0.217417
