# Wavelength	Absorbance
197.780200 0.138949
197.984200 -0.208659
198.188200 -0.030080
198.392200 -0.441707
198.596300 -0.208444
198.800300 2.318063
199.004400 -0.183879
199.208500 0.050710
199.412600 -0.138699
199.616800 2.768638
199.820900 -0.350195
200.025100 0.192205
200.229200 2.463893
200.433400 0.002991
200.637600 -0.278178
200.841800 0.536515
201.046100 -0.298039
201.250300 3.142702
201.454600 0.206372
201.658900 3.051153
201.863100 -0.508625
202.067400 -0.236089
202.271800 -0.230511
202.476100 2.896526
202.680500 -0.451156
202.884800 0.164880
203.089200 -0.089223
203.293600 -0.286737
203.498000 -0.384258
203.702400 -0.720445
203.906900 1.959041
204.111300 0.000000
204.315800 -0.422096
204.520300 0.006053
204.724800 0.086652
204.929300 2.396199
205.133800 3.093772
205.338400 2.820201
205.543000 -0.082389
205.747500 -0.493367
205.952100 -0.345663
206.156700 0.479534
206.361400 0.000000
206.566000 -1.006160
206.770600 0.252803
206.975300 -0.561658
207.180000 0.845098
207.384700 -0.268413
207.589400 -3.273696
207.794100 -0.259565
207.998900 -0.207090
208.203600 3.152288
208.408400 -0.216991
208.613200 -0.289377
208.818000 -0.084239
209.022800 0.389667
209.227600 -0.147814
209.432500 2.907949
209.637300 -0.296014
209.842200 2.294466
210.047100 -0.069994
210.252000 2.053078
210.456900 -0.008810
210.661800 1.432129
210.866800 0.501684
211.071800 0.549393
211.276700 0.282636
211.481700 0.069879
211.686700 -0.819022
211.891800 2.480007
212.096800 0.378652
212.301800 2.890421
212.506900 0.504775
212.712000 0.050272
212.917100 3.226342
213.122200 0.942008
213.327300 0.140627
213.532500 -3.156852
213.737600 -0.190085
213.942800 -1.520858
214.148000 2.631444
214.353200 0.000000
214.558400 -0.447467
214.763600 -0.067754
214.968900 -0.213052
215.174100 3.104487
215.379400 -2.815578
215.584700 0.060204
215.790000 0.282030
215.995300 -0.252416
216.200700 -0.567467
216.406000 0.577720
216.611400 -0.628719
216.816800 -0.388151
217.022200 -0.134699
217.227600 0.217715
217.433000 -0.587293
217.638400 3.047275
217.843900 -0.038869
218.049400 -1.322219
218.254800 3.275081
218.460300 -0.245222
218.665900 -0.255021
218.871400 0.548776
219.076900 -0.032914
219.282500 -0.070866
219.488100 0.099841
219.693600 -0.426950
219.899200 0.642329
220.104900 -0.203498
220.310500 -0.279388
220.516100 -3.248709
220.721800 0.768353
220.927500 0.385404
221.133200 -0.138204
221.338900 0.623249
221.544600 -0.068445
221.750300 0.169034
221.956100 0.184777
222.161800 -0.598560
222.367600 -0.355528
222.573400 2.643453
222.779200 -2.227887
222.985000 0.000000
223.190900 3.017451
223.396700 -0.083832
223.602600 -0.792261
223.808500 0.632593
224.014400 2.853698
224.220300 2.935507
224.426200 -0.067420
224.632200 -0.345076
224.838100 -0.502100
225.044100 -0.343299
225.250100 -0.004866
225.456100 0.287725
225.662100 -0.631415
225.868100 -0.373954
226.074200 -0.293885
226.280200 0.000000
226.486300 -0.193251
226.692400 -2.815578
226.898500 0.434885
227.104600 -0.108654
227.310700 0.282631
227.516900 -0.388151
227.723000 2.089905
227.929200 0.195948
228.135400 -0.082035
228.341600 -0.521737
228.547800 0.192827
228.754100 -0.269804
228.960300 -0.510362
229.166600 -2.915400
229.372900 -0.543531
229.579100 -0.510634
229.785500 0.069057
229.991800 -2.354383
230.198100 -0.265289
230.404500 -0.537271
230.610800 -0.333368
230.817200 -2.947434
231.023600 -0.067186
231.230000 1.360828
231.436400 -0.126237
231.642900 -0.268718
231.849300 -0.100960
232.055800 -1.115251
232.262300 1.001369
232.468800 -0.726700
232.675300 2.701568
232.881800 0.371996
233.088400 -0.286737
233.294900 -0.330585
233.501500 -0.170615
233.708100 -2.892651
233.914700 -0.257053
234.121300 -2.278754
234.327900 0.497948
234.534600 -0.119259
234.741300 0.542510
234.947900 -0.286856
235.154600 0.438184
235.361300 0.042278
235.568000 0.618895
235.774800 -0.022984
235.981500 -0.452228
236.188300 -3.232742
236.395100 0.529743
236.601800 0.000000
236.808700 -0.095959
237.015500 -0.111196
237.222300 -0.248735
237.429200 3.265290
237.636000 0.357227
237.842900 1.851258
238.049800 -0.225397
238.256700 1.029963
238.463600 0.105726
238.670600 2.970812
238.877500 0.081701
239.084500 -2.755875
239.291500 0.248618
239.498500 2.245513
239.705500 -0.405377
239.912500 -1.360106
240.119500 -1.152413
240.326600 -0.611072
240.533700 -3.248709
240.740700 -0.402076
240.947800 -0.346921
241.154900 0.178371
241.362100 0.705106
241.569200 0.131398
241.776400 -0.259746
241.983500 2.783904
242.190700 0.157996
242.397900 -2.771587
242.605100 -0.819925
242.812400 2.587711
243.019600 3.242293
243.226900 -0.413734
243.434100 -0.335425
243.641400 -0.286856
243.848700 -0.298281
244.056000 -3.248709
244.263400 -0.579530
244.470700 0.912524
244.678100 0.114411
244.885400 0.299065
245.092800 -0.596380
245.300200 2.357935
245.507600 0.828948
245.715100 3.034628
245.922500 -0.195811
246.130000 -1.826456
246.337500 3.183555
246.544900 -0.676418
246.752400 0.253281
246.960000 0.228228
247.167500 0.660279
247.375000 0.000000
247.582600 0.339974
247.790200 -1.112509
247.997800 -0.262534
248.205400 0.052072
248.413000 0.004094
248.620600 2.727541
248.828300 0.126262
249.035900 0.052876
249.243600 3.093772
249.451300 0.958113
249.659000 0.178047
249.866700 3.168203
250.074500 1.201036
250.282200 0.719668
250.490000 3.021603
250.697800 -0.290399
250.905600 -0.622427
251.113400 2.929930
251.321200 -0.278124
251.529000 -0.906800
251.736900 0.154284
251.944700 3.186674
252.152600 0.249382
252.360500 0.272367
252.568400 -0.138646
252.776300 -0.458184
252.984300 0.033358
253.192200 0.262793
253.400200 0.831199
253.608200 -0.066635
253.816200 0.194614
254.024200 2.872739
254.232200 -0.427636
254.440200 0.000000
254.648300 -0.518872
254.856400 -0.687243
255.064400 -0.139426
255.272500 3.097604
255.480600 0.525045
255.688800 0.000000
255.896900 -0.307065
256.105100 0.327274
256.313200 -0.404035
256.521400 0.357547
256.729600 -0.054550
256.937800 0.040779
257.146000 -0.066013
257.354300 -2.603144
257.562500 0.246513
257.770800 -2.403121
257.979100 3.195346
258.187400 0.077910
258.395700 -0.232765
258.604000 0.263041
258.812400 2.919078
259.020700 0.321117
259.229100 0.044942
259.437500 2.975891
259.645900 0.158176
259.854300 2.878522
260.062700 0.138262
260.271100 0.393290
260.479600 -0.309617
260.688100 2.562293
260.896500 3.252853
261.105000 -0.615103
261.313500 -0.732548
261.522100 0.355951
261.730600 2.945961
261.939200 -0.085183
262.147700 0.886091
262.356300 -0.242144
262.564900 -0.186075
262.773500 -0.303442
262.982200 0.081774
263.190800 -3.205204
263.399500 3.206826
263.608100 0.299445
263.816800 -0.115821
264.025500 0.596859
264.234200 -1.041118
264.442900 -0.924645
264.651700 0.627782
264.860400 2.662758
265.069200 0.135753
265.278000 0.886535
265.486800 0.805629
265.695600 2.450249
265.904400 -0.193100
266.113300 -0.414637
266.322100 0.006429
266.531000 0.495126
266.739900 -0.842888
266.948800 0.045541
267.157700 2.884795
267.366600 0.475595
267.575500 -0.280925
267.784500 -0.305896
267.993500 -0.320794
268.202400 0.248178
268.411400 -0.311441
268.620500 -0.545464
268.829500 -0.472734
269.038500 2.123852
269.247600 0.186168
269.456600 0.084321
269.665700 0.123063
269.874800 2.907411
270.083900 3.255273
270.293100 0.000000
270.502200 0.263041
270.711400 0.023301
270.920500 -0.296871
271.129700 0.104613
271.338900 -0.250252
271.548100 0.326477
271.757300 -0.050071
271.966600 -0.077595
272.175800 0.448305
272.385100 0.345828
272.594400 2.970812
272.803700 -0.115751
273.013000 -0.148093
273.222300 0.238882
273.431600 0.409369
273.641000 0.059334
273.850400 -0.321684
274.059700 -0.223420
274.269100 0.486881
274.478500 -0.394718
274.688000 1.079751
274.897400 -0.271067
275.106900 1.591065
275.316300 0.689890
275.525800 3.067071
275.735300 -3.072617
275.944800 -0.216172
276.154300 0.225007
276.363900 0.241250
276.573400 -0.117501
276.783000 -0.228009
276.992600 0.017652
277.202200 0.492180
277.411800 -0.521868
277.621400 2.727541
277.831000 0.413587
278.040700 0.104919
278.250300 -0.310454
278.460000 -0.208444
278.669700 0.294716
278.879400 -0.233549
279.089100 2.691965
279.298900 -0.328947
279.508600 3.025715
279.718400 3.272770
279.928100 0.000000
280.137900 0.150541
280.347700 1.009208
280.557600 2.960946
280.767400 0.868756
280.977200 0.506668
281.187100 -3.163161
281.397000 0.174505
281.606900 -3.080266
281.816800 0.215272
282.026700 -0.197160
282.236600 0.379909
282.446600 0.031628
282.656500 -2.025306
282.866500 -0.213919
283.076500 -0.718448
283.286500 0.118766
283.496500 -0.009607
283.706500 0.240893
283.916600 -0.120932
284.126600 -1.433656
284.336700 -0.255794
284.546800 -0.227867
284.756900 -0.311544
284.967000 0.080948
285.177100 -0.215908
285.387300 -2.625312
285.597400 -0.078136
285.807600 2.127105
286.017800 3.294246
286.228000 -3.328787
286.438200 0.165824
286.648400 -0.297781
286.858700 0.141438
287.068900 -0.082187
287.279200 0.619069
287.489500 -0.477678
287.699800 1.359625
287.910100 -0.101458
288.120400 0.400871
288.330800 -0.426296
288.541100 -0.004790
288.751500 2.217484
288.961900 -0.435128
289.172300 0.000000
289.382700 0.034610
289.593100 2.913284
289.803500 -2.666518
290.014000 0.240886
290.224500 0.178371
290.434900 -3.095169
290.645400 -0.280929
290.855900 -0.343299
291.066500 0.542984
291.277000 -0.287519
291.487500 2.768638
291.698100 0.598376
291.908700 0.059703
292.119300 -0.050394
292.329900 -0.021863
292.540500 0.199437
292.751100 2.956168
292.961800 -2.968016
293.172400 0.267260
293.383100 -2.771587
293.593800 2.994757
293.804500 2.495544
294.015200 0.099644
294.226000 0.000000
294.436700 -0.257564
294.647500 -0.148233
294.858200 -0.130388
295.069000 0.652258
295.279800 0.181302
295.490600 -2.880814
295.701500 3.059185
295.912300 -0.155512
296.123200 0.215916
296.334000 -0.529377
296.544900 0.023888
296.755800 0.817772
296.966700 0.547874
297.177700 -0.184695
297.388600 0.379909
297.599500 -0.770694
297.810500 -0.079122
298.021500 -0.166331
298.232500 -0.177404
298.443500 1.690196
298.654500 0.405949
298.865600 3.125806
299.076600 -0.374298
299.287700 -2.666518
299.498800 0.332479
299.709900 0.235485
299.921000 0.567999
300.132100 3.038620
300.343200 0.197828
300.554400 -0.017374
300.765500 0.148690
300.976700 -2.915400
301.187900 0.524704
301.399100 -0.209671
301.610300 0.482964
301.821500 0.999251
302.032800 -0.188433
302.244100 0.148806
302.455300 -0.151104
302.666600 -0.136148
302.877900 0.756520
303.089200 -0.197160
303.300600 0.052931
303.511900 -0.317438
303.723300 0.344496
303.934600 -0.412746
304.146000 0.845098
304.357400 -0.423155
304.568800 -0.374980
304.780300 0.082710
304.991700 -0.002134
305.203100 -0.897539
305.414600 0.230366
305.626100 2.294466
305.837600 1.030862
306.049100 -0.139426
306.260600 -0.302571
306.472200 -0.898438
306.683700 -0.068560
306.895300 0.209700
307.106900 0.284291
307.318400 0.864367
307.530100 -0.022558
307.741700 2.806180
307.953300 0.150393
308.165000 -3.216430
308.376600 0.242037
308.588300 0.616980
308.800000 0.178103
309.011700 0.399531
309.223400 0.210407
309.435100 2.450249
309.646900 -0.376324
309.858600 3.054996
310.070400 -0.081808
310.282200 -1.445493
310.494000 0.531255
310.705800 3.168203
310.917600 0.041665
311.129500 2.840106
311.341300 0.509694
311.553200 0.063805
311.765100 0.814967
311.977000 0.012047
312.188900 0.012965
312.400800 3.030600
312.612700 0.987531
312.824700 3.292034
313.036600 0.579182
313.248600 0.728890
313.460600 -0.014955
313.672600 0.996327
313.884600 0.205546
314.096700 -0.472734
314.308700 0.227253
314.520800 -0.173697
314.732800 0.069733
314.944900 0.499724
315.157000 0.366348
315.369200 3.082785
315.581300 -0.019648
315.793400 -0.148191
316.005600 1.056080
316.217700 0.051595
316.429900 0.303239
316.642100 0.171691
316.854300 -0.117082
317.066600 3.463445
317.278800 0.133612
317.491100 0.691229
317.703300 0.866438
317.915600 0.008197
318.127900 0.270248
318.340200 0.193430
318.552500 3.255273
318.764900 3.139249
318.977200 0.199295
319.189600 3.030195
319.401900 0.205388
319.614300 0.489144
319.826700 0.127456
320.039200 1.333580
320.251600 3.303412
320.464000 3.336260
320.676500 0.361115
320.889000 -0.201135
321.101400 0.663147
321.313900 0.454144
321.526500 0.252927
321.739000 0.207196
321.951500 1.673562
322.164100 3.132580
322.376600 0.255242
322.589200 0.065318
322.801800 0.446954
323.014400 0.346451
323.227000 0.462225
323.439700 1.513154
323.652300 1.445986
323.865000 1.050466
324.077700 0.509278
324.290400 0.128425
324.503100 0.028914
324.715800 3.399154
324.928500 0.583088
325.141200 0.369654
325.354000 0.488596
325.566800 0.723357
325.779600 0.826982
325.992400 0.318198
326.205200 0.254327
326.418000 0.506346
326.630800 0.858861
326.843700 3.659250
327.056600 0.383830
327.269400 0.376767
327.482300 0.475085
327.695200 0.354151
327.908200 0.615744
328.121100 0.337322
328.334000 3.554126
328.547000 1.107772
328.760000 0.877388
328.973000 3.578983
329.186000 0.917907
329.399000 3.445915
329.612000 1.436916
329.825100 3.485153
330.038100 0.718956
330.251200 3.572872
330.464300 0.871546
330.677400 1.531680
330.890500 0.523222
331.103600 2.204249
331.316700 1.062186
331.529900 0.389486
331.743100 0.715234
331.956200 1.191517
332.169400 0.309024
332.382600 0.321395
332.595900 0.596648
332.809100 3.604766
333.022300 0.478999
333.235600 1.709189
333.448900 0.839657
333.662200 1.285098
333.875500 1.063186
334.088800 1.290364
334.302100 3.740521
334.515400 0.566824
334.728800 0.448190
334.942200 0.388659
335.155500 1.476437
335.368900 0.647286
335.582300 1.362125
335.795800 1.752689
336.009200 2.421604
336.222700 3.666237
336.436100 0.537455
336.649600 1.692146
336.863100 0.860475
337.076600 0.860693
337.290100 0.530535
337.503600 0.413221
337.717200 1.112886
337.930700 0.983144
338.144300 0.427313
338.357900 3.656290
338.571500 0.304892
338.785100 0.873902
338.998700 0.424180
339.212400 1.345490
339.426000 0.697624
339.639700 3.667266
339.853300 0.577791
340.067000 1.001816
340.280700 0.454476
340.494500 1.123556
340.708200 1.216627
340.921900 3.796644
341.135700 0.521988
341.349500 1.008632
341.563300 0.528005
341.777100 0.680740
341.990900 0.577343
342.204700 0.858435
342.418500 0.558114
342.632400 3.830460
342.846300 0.651361
343.060100 0.669771
343.274000 1.139295
343.487900 0.884529
343.701900 1.429697
343.915800 1.213238
344.129700 1.134039
344.343700 0.627557
344.557700 0.872308
344.771700 0.872678
344.985700 0.797894
345.199700 0.690533
345.413700 1.262510
345.627700 1.313510
345.841800 0.582272
346.055900 1.416373
346.269900 3.868644
346.484000 1.252212
346.698100 0.374206
346.912300 0.571815
347.126400 0.684076
347.340600 1.083586
347.554700 3.883264
347.768900 3.886321
347.983100 0.901851
348.197300 0.801464
348.411500 1.301087
348.625700 1.010635
348.840000 0.774764
349.054200 3.926085
349.268500 1.005456
349.482800 1.101259
349.697100 0.758473
349.911400 0.962432
350.125700 0.845739
350.340000 1.572381
350.554400 0.934189
350.768700 0.810373
350.983100 3.917820
351.197500 3.889246
351.411900 1.026830
351.626300 3.954918
351.840700 0.709209
352.055200 1.027792
352.269600 0.857037
352.484100 0.878234
352.698600 1.002853
352.913100 0.856650
353.127600 3.993348
353.342100 1.322954
353.556600 0.899544
353.771200 4.007534
353.985800 1.442584
354.200300 3.930898
354.414900 0.837142
354.629500 0.970126
354.844100 1.057257
355.058800 0.755449
355.273400 0.801988
355.488100 1.041705
355.702700 0.828286
355.917400 0.808264
356.132100 1.545705
356.346800 0.933170
356.561500 1.299356
356.776300 0.736030
356.991000 1.202487
357.205800 0.972743
357.420600 2.665983
357.635300 3.982045
357.850100 0.938352
358.065000 3.991935
358.279800 2.357299
358.494600 0.945474
358.709500 1.065446
358.924300 3.975799
359.139200 0.811843
359.354100 2.063923
359.569000 1.427751
359.783900 3.987264
359.998900 0.708755
360.213800 4.019947
360.428800 1.634867
360.643800 3.982497
360.858700 3.960946
361.073700 1.103032
361.288800 1.064419
361.503800 0.924018
361.718800 1.494137
361.933900 0.977511
362.148900 0.914433
362.364000 3.994713
362.579100 0.887333
362.794200 0.988466
363.009300 1.168076
363.224500 0.809271
363.439600 0.695493
363.654800 4.034989
363.869900 0.759353
364.085100 4.019947
364.300300 4.010681
364.515500 4.049102
364.730800 1.206721
364.946000 4.055608
365.161200 0.953156
365.376500 1.720872
365.591800 4.054805
365.807100 4.020403
366.022400 1.316875
366.237700 2.052716
366.453000 1.302985
366.668400 1.074855
366.883700 0.858429
367.099100 1.306035
367.314500 0.892287
367.529900 1.556437
367.745300 0.932834
367.960700 4.089375
368.176100 2.067765
368.391600 1.777568
368.607000 1.579210
368.822500 1.016731
369.038000 1.085341
369.253500 0.969750
369.469000 1.242907
369.684500 1.064357
369.900100 1.294663
370.115600 1.743643
370.331200 1.628025
370.546800 1.666258
370.762400 1.765778
370.978000 4.107990
371.193600 1.167334
371.409200 1.759310
371.624900 1.421136
371.840500 1.338519
372.056200 2.205282
372.271900 1.930866
372.487600 1.814695
372.703300 1.902029
372.919000 1.114668
373.134800 1.699920
373.350500 1.186201
373.566300 1.312028
373.782000 1.030053
373.997800 1.313374
374.213600 1.144685
374.429400 4.167613
374.645300 1.389329
374.861100 0.851767
375.077000 1.377157
375.292800 4.182329
375.508700 0.748050
375.724600 4.210586
375.940500 1.532662
376.156400 1.821335
376.372400 1.772545
376.588300 4.218667
376.804300 1.910437
377.020300 1.746521
377.236200 0.994453
377.452200 4.269816
377.668200 1.460216
377.884300 1.273138
378.100300 1.451862
378.316400 1.323864
378.532400 1.334012
378.748500 4.301356
378.964600 1.666049
379.180700 1.683081
379.396800 1.516785
379.612900 4.277861
379.829100 1.268187
380.045200 1.328152
380.261400 2.692742
380.477600 1.168636
380.693800 1.184132
380.910000 1.485013
381.126200 0.998925
381.342400 1.614951
381.558700 1.349568
381.774900 1.384433
381.991200 4.304318
382.207500 1.346652
382.423800 1.523476
382.640100 1.675035
382.856400 1.636328
383.072800 1.490198
383.289100 1.336522
383.505500 1.492849
383.721900 1.984954
383.938200 2.235668
384.154600 1.134246
384.371100 1.900028
384.587500 4.348791
384.803900 1.167409
385.020400 1.298604
385.236800 1.077807
385.453300 1.125600
385.669800 1.252920
385.886300 1.957624
386.102800 2.189858
386.319400 1.132576
386.535900 1.093448
386.752500 1.059794
386.969000 0.876031
387.185600 4.362124
387.402200 0.992989
387.618800 2.172686
387.835500 1.540232
388.052100 1.771317
388.268700 1.382401
388.485400 1.041032
388.702100 4.414907
388.918800 1.202901
389.135500 1.564920
389.352200 1.015313
389.568900 1.260573
389.785600 1.194937
390.002400 1.254540
390.219200 1.632333
390.435900 1.065258
390.652700 1.341834
390.869500 1.570939
391.086300 1.064094
391.303200 1.399004
391.520000 1.175601
391.736900 1.229778
391.953700 0.924889
392.170600 1.487421
392.387500 1.095804
392.604400 1.566172
392.821300 0.948401
393.038300 1.151066
393.255200 1.207440
393.472200 1.168712
393.689100 1.003090
393.906100 1.084063
394.123100 0.994748
394.340100 1.035863
394.557200 1.016587
394.774200 1.053861
394.991200 0.790493
395.208300 0.992010
395.425400 0.982966
395.642500 1.004169
395.859600 0.916764
396.076700 1.091546
396.293800 1.051181
396.510900 0.877082
396.728100 0.913987
396.945300 1.023105
397.162400 0.782651
397.379600 0.928702
397.596800 0.880349
397.814000 0.852360
398.031300 0.817148
398.248500 0.824016
398.465800 0.796640
398.683000 0.869459
398.900300 0.799100
399.117600 0.825272
399.334900 0.807289
399.552200 0.832001
399.769600 0.727270
399.986900 0.724961
400.204300 0.699151
400.421600 0.762649
400.639000 0.800640
400.856400 0.617985
401.073800 0.690543
401.291200 0.761594
401.508700 0.693619
401.726100 0.698066
401.943600 0.698279
402.161000 0.630176
402.378500 0.632442
402.596000 0.678487
402.813500 0.586518
403.031000 0.614533
403.248600 0.708339
403.466100 0.605950
403.683700 0.646893
403.901300 0.687926
404.118900 0.636062
404.336500 0.589345
404.554100 0.667585
404.771700 0.542141
404.989300 0.604050
405.207000 0.597704
405.424600 0.511502
405.642300 0.668430
405.860000 0.551472
406.077700 0.614729
406.295400 0.540026
406.513100 0.468458
406.730900 0.517926
406.948600 0.616787
407.166400 0.555356
407.384200 0.571917
407.602000 0.488791
407.819800 0.491914
408.037600 0.593429
408.255400 0.505606
408.473300 0.520066
408.691100 0.518308
408.909000 0.565736
409.126900 0.501420
409.344800 0.497802
409.562700 0.500957
409.780600 0.526438
409.998500 0.441862
410.216500 0.496726
410.434400 0.473865
410.652400 0.439165
410.870400 0.494352
411.088400 0.507784
411.306400 0.436242
411.524400 0.414342
411.742400 0.429139
411.960500 0.405256
412.178500 0.425897
412.396600 0.441142
412.614700 0.448330
412.832800 0.462888
413.050900 0.417297
413.269000 0.395908
413.487100 0.400644
413.705300 0.445360
413.923400 0.405718
414.141600 0.376712
414.359800 0.530873
414.578000 0.436619
414.796200 0.378945
415.014400 0.409544
415.232600 0.368093
415.450900 0.387695
415.669200 0.338806
415.887400 0.415671
416.105700 0.408124
416.324000 0.406925
416.542300 0.346415
416.760600 0.373242
416.979000 0.375724
417.197300 0.355134
417.415700 0.350144
417.634100 0.324997
417.852400 0.329465
418.070800 0.386419
418.289300 0.368975
418.507700 0.349184
418.726100 0.345301
418.944600 0.369137
419.163000 0.370000
419.381500 0.347940
419.600000 0.357609
419.818500 0.390053
420.037000 0.334036
420.255500 0.373802
420.474100 0.327765
420.692600 0.324930
420.911200 0.358613
421.129800 0.343987
421.348300 0.327919
421.566900 0.309272
421.785600 0.301497
422.004200 0.340805
422.222800 0.307676
422.441500 0.322437
422.660100 0.324466
422.878800 0.316463
423.097500 0.304882
423.316200 0.337369
423.534900 0.311168
423.753600 0.363074
423.972400 0.279252
424.191100 0.317064
424.409900 0.326697
424.628700 0.318533
424.847500 0.275169
425.066300 0.316367
425.285100 0.292833
425.503900 0.277237
425.722800 0.309857
425.941600 0.286912
426.160500 0.269197
426.379300 0.292666
426.598200 0.283251
426.817100 0.317473
427.036100 0.275845
427.255000 0.288426
427.473900 0.268485
427.692900 0.285433
427.911800 0.303654
428.130800 0.280602
428.349800 0.284284
428.568800 0.280862
428.787800 0.270115
429.006800 0.279441
429.225900 0.281564
429.444900 0.294342
429.664000 0.275518
429.883100 0.348453
430.102200 0.276288
430.321300 0.307109
430.540400 0.274084
430.759500 0.255794
430.978700 0.274772
431.197800 0.306154
431.417000 0.251172
431.636200 0.274314
431.855300 0.297042
432.074500 0.304712
432.293800 0.284780
432.513000 0.238476
432.732200 0.254312
432.951500 0.304673
433.170700 0.268106
433.390000 0.251315
433.609300 0.282822
433.828600 0.290362
434.047900 0.260176
434.267300 0.273154
434.486600 0.245337
434.705900 0.305141
434.925300 0.252349
435.144700 0.311874
435.364100 0.250926
435.583500 0.290710
435.802900 0.259575
436.022300 0.274657
436.241800 0.261790
436.461200 0.266362
436.680700 0.289400
436.900100 0.299269
437.119600 0.299155
437.339100 0.260092
437.558600 0.289549
437.778200 0.249560
437.997700 0.273621
438.217300 0.261124
438.436800 0.287334
438.656400 0.273311
438.876000 0.265951
439.095600 0.254261
439.315200 0.302394
439.534800 0.280303
439.754500 0.254140
439.974100 0.277737
440.193800 0.324563
440.413500 0.283878
440.633100 0.293577
440.852800 0.297442
441.072500 0.329367
441.292300 0.307759
441.512000 0.306982
441.731800 0.281908
441.951500 0.311002
442.171300 0.292631
442.391100 0.263766
442.610900 0.288686
442.830700 0.279448
443.050500 0.309825
443.270300 0.273269
443.490200 0.288270
443.710100 0.311783
443.929900 0.328953
444.149800 0.322053
444.369700 0.321986
444.589600 0.267703
444.809500 0.303473
445.029500 0.311537
445.249400 0.299331
445.469400 0.309901
445.689400 0.302051
445.909300 0.293216
446.129300 0.319434
446.349300 0.319242
446.569400 0.352607
446.789400 0.336787
447.009400 0.327401
447.229500 0.292557
447.449600 0.334395
447.669600 0.314661
447.889700 0.335716
448.109800 0.348992
448.330000 0.303011
448.550100 0.371875
448.770200 0.325899
448.990400 0.340101
449.210600 0.359355
449.430700 0.309295
449.650900 0.323882
449.871100 0.336346
450.091400 0.363238
450.311600 0.351075
450.531800 0.327065
450.752100 0.343585
450.972400 0.334429
451.192600 0.332159
451.412900 0.366424
451.633200 0.345995
451.853500 0.328877
452.073900 0.334387
452.294200 0.338730
452.514600 0.357667
452.734900 0.341545
452.955300 0.313315
453.175700 0.360170
453.396100 0.358724
453.616500 0.389058
453.836900 0.348540
454.057400 0.378259
454.277800 0.344388
454.498300 0.371955
454.718800 0.343168
454.939300 0.335706
455.159700 0.401995
455.380300 0.434933
455.600800 0.373984
455.821300 0.414586
456.041900 0.444585
456.262400 0.432660
456.483000 0.410904
456.703600 0.395761
456.924200 0.451750
457.144800 0.431898
457.365400 0.395337
457.586000 0.462033
457.806700 0.432941
458.027400 0.416197
458.248000 0.441250
458.468700 0.461015
458.689400 0.429970
458.910100 0.417113
459.130800 0.430770
459.351600 0.413954
459.572300 0.396654
459.793100 0.467282
460.013800 0.451363
460.234600 0.470405
460.455400 0.478577
460.676200 0.437456
460.897000 0.493472
461.117800 0.454345
461.338700 0.449182
461.559500 0.504371
461.780400 0.451773
462.001300 0.475928
462.222200 0.498503
462.443100 0.460779
462.664000 0.530068
462.884900 0.471510
463.105900 0.450897
463.326800 0.514241
463.547800 0.549904
463.768700 0.540894
463.989700 0.528612
464.210700 0.497497
464.431700 0.516409
464.652800 0.493455
464.873800 0.559311
465.094800 0.526764
465.315900 0.542282
465.537000 0.546159
465.758100 0.558893
465.979200 0.523456
466.200300 0.570865
466.421400 0.541131
466.642500 0.580654
466.863700 0.589454
467.084800 0.622370
467.306000 0.579231
467.527200 0.583200
467.748400 0.555922
467.969600 0.590113
468.190800 0.610312
468.412000 0.573526
468.633300 0.642207
468.854500 0.630570
469.075800 0.624816
469.297000 0.602335
469.518300 0.577594
469.739600 0.641566
469.961000 0.649576
470.182300 0.625587
470.403600 0.630419
470.625000 0.644301
470.846300 0.633087
471.067700 0.649576
471.289100 0.598585
471.510500 0.640442
471.731900 0.630027
471.953300 0.638291
472.174800 0.609508
472.396200 0.710505
472.617700 0.588718
472.839100 0.677750
473.060600 0.648546
473.282100 0.722278
473.503600 0.675837
473.725100 0.694133
473.946700 0.708333
474.168200 0.769605
474.389800 0.665038
474.611300 0.726341
474.832900 0.690669
475.054500 0.753671
475.276100 0.762608
475.497700 0.693775
475.719300 0.736484
475.941000 0.706623
476.162600 0.748987
476.384300 0.697575
476.606000 0.750660
476.827700 0.756944
477.049400 0.758796
477.271100 0.804930
477.492800 0.761910
477.714500 0.768859
477.936300 0.841138
478.158000 0.835521
478.379800 0.817313
478.601600 0.758728
478.823400 0.798799
479.045200 0.888195
479.267000 0.783288
479.488800 0.765580
479.710700 0.887650
479.932500 0.780835
480.154400 0.815639
480.376300 0.772997
480.598200 0.748226
480.820100 0.740506
481.042000 0.809766
481.263900 0.798173
481.485900 0.901037
481.707800 0.900221
481.929800 0.902852
482.151700 0.847679
482.373700 0.895933
482.595700 0.785223
482.817700 0.795876
483.039800 0.912048
483.261800 0.904101
483.483800 0.903227
483.705900 0.868110
483.928000 0.875549
484.150100 0.845402
484.372100 0.922859
484.594300 0.911513
484.816400 0.866348
485.038500 0.943123
485.260600 0.922206
485.482800 0.887813
485.705000 0.927124
485.927100 0.982341
486.149300 1.045558
486.371500 0.976502
486.593700 0.987010
486.816000 0.995034
487.038200 1.008730
487.260500 0.916633
487.482700 0.956820
487.705000 0.829616
487.927300 0.976141
488.149600 1.012594
488.371900 1.085869
488.594200 0.997113
488.816500 0.909200
489.038900 0.923396
489.261200 1.048315
489.483600 0.981561
489.706000 1.010311
489.928400 0.956450
490.150800 1.087793
490.373200 0.965065
490.595600 0.888776
490.818000 1.021037
491.040500 1.013096
491.263000 0.940436
491.485400 1.033852
491.707900 0.947894
491.930400 1.158429
492.152900 1.086014
492.375500 0.955183
492.598000 0.982189
492.820500 1.074129
493.043100 1.099623
493.265700 1.042781
493.488200 0.986560
493.710800 1.057779
493.933400 1.015762
494.156100 1.069988
494.378700 1.029124
494.601300 1.056019
494.824000 1.006106
495.046600 1.059309
495.269300 1.097775
495.492000 1.203379
495.714700 0.997028
495.937400 1.076851
496.160100 1.100665
496.382900 1.074036
496.605600 1.002516
496.828400 1.113727
497.051100 1.051696
497.273900 0.990178
497.496700 1.148207
497.719500 1.186725
497.942300 0.942148
498.165200 1.084399
498.388000 1.125131
498.610900 0.985623
498.833700 1.297807
499.056600 1.146103
499.279500 1.158033
499.502400 1.117639
499.725300 1.091175
499.948200 1.047959
500.171200 1.135104
500.394100 1.164594
500.617100 1.062619
500.840000 1.305343
501.063000 1.178777
501.286000 1.146026
501.509000 1.227072
501.732000 1.409725
501.955100 1.002037
502.178100 1.126128
502.401200 1.066680
502.624200 1.055465
502.847300 1.057081
503.070400 1.186626
503.293500 1.140926
503.516600 1.211633
503.739700 1.308273
503.962800 1.118626
504.186000 1.070279
504.409200 1.246717
504.632300 1.183605
504.855500 1.116332
505.078700 1.080568
505.301900 1.131265
505.525100 1.045698
505.748300 1.251152
505.971600 1.110862
506.194800 1.266701
506.418100 1.094046
506.641400 1.224744
506.864700 1.240224
507.088000 1.118210
507.311300 1.031205
507.534600 1.244217
507.757900 1.144317
507.981300 1.141102
508.204600 1.026162
508.428000 1.101422
508.651400 1.095700
508.874800 1.080840
509.098200 1.185318
509.321600 1.341643
509.545000 1.226240
509.768500 1.206347
509.991900 1.000629
510.215400 1.183492
510.438800 1.178957
510.662300 1.294331
510.885800 1.222581
511.109300 1.330511
511.332900 0.973450
511.556400 1.226577
511.779900 1.144454
512.003500 1.094108
512.227000 1.086713
512.450600 1.074828
512.674200 1.232565
512.897800 1.150125
513.121400 1.194749
513.345100 1.179579
513.568700 1.036960
513.792300 1.047461
514.016000 1.191466
514.239700 1.379381
514.463400 0.992531
514.687100 0.989835
514.910800 1.079052
515.134500 1.157330
515.358200 1.106139
515.581900 1.512959
515.805700 1.084276
516.029500 1.082317
516.253200 1.241775
516.477000 1.228490
516.700800 1.075698
516.924600 1.006983
517.148500 0.994007
517.372300 1.117788
517.596100 1.040424
517.820000 1.141918
518.043900 1.026584
518.267700 0.925143
518.491600 1.022076
518.715500 1.111442
518.939500 1.164359
519.163400 1.203691
519.387300 1.106423
519.611300 1.048822
519.835200 1.074131
520.059200 1.168300
520.283200 1.079104
520.507200 0.941742
520.731200 1.059894
520.955200 0.878502
521.179200 0.937369
521.403300 0.990089
521.627300 0.917602
521.851400 1.003153
522.075500 1.105740
522.299600 0.972801
522.523700 1.276956
522.747800 1.089244
522.971900 0.982336
523.196000 0.937487
523.420200 0.961084
523.644300 1.024113
523.868500 0.955805
524.092700 0.845121
524.316900 0.973331
524.541100 0.952939
524.765300 0.995459
524.989500 1.016477
525.213800 0.982429
525.438000 0.940349
525.662300 0.977552
525.886500 1.006468
526.110800 0.947992
526.335100 0.873089
526.559400 0.837760
526.783700 1.024211
527.008100 0.836290
527.232400 0.881680
527.456800 0.882570
527.681100 0.843520
527.905500 1.009115
528.129900 0.916617
528.354300 0.865664
528.578700 0.905232
528.803100 0.966115
529.027600 0.834958
529.252000 0.843968
529.476500 0.871755
529.700900 0.950943
529.925400 0.867873
530.149900 0.820841
530.374400 0.766156
530.598900 0.735966
530.823400 0.758107
531.048000 0.829811
531.272500 0.812217
531.497100 0.956021
531.721700 0.728018
531.946200 0.854239
532.170800 0.836568
532.395400 0.753205
532.620000 0.742424
532.844700 0.865378
533.069300 0.753985
533.294000 0.755961
533.518600 0.784012
533.743300 0.890430
533.968000 0.761260
534.192700 0.862349
534.417400 0.788916
534.642100 0.756051
534.866800 0.684184
535.091600 0.755466
535.316300 0.739008
535.541100 0.738907
535.765900 0.698604
535.990700 0.708689
536.215500 0.673404
536.440300 0.760740
536.665100 0.648779
536.889900 0.676802
537.114800 0.697190
537.339600 0.709178
537.564500 0.735504
537.789400 0.683816
538.014300 0.716632
538.239200 0.715442
538.464100 0.697023
538.689000 0.665287
538.913900 0.670430
539.138900 0.662565
539.363800 0.576676
539.588800 0.747981
539.813800 0.615254
540.038800 0.677457
540.263800 0.606141
540.488800 0.633911
540.713800 0.620681
540.938900 0.604707
541.163900 0.587275
541.389000 0.595921
541.614000 0.549658
541.839100 0.674356
542.064200 0.573120
542.289300 0.635977
542.514400 0.595111
542.739600 0.607761
542.964700 0.564674
543.189900 0.551342
543.415000 0.570446
543.640200 0.605879
543.865400 0.564170
544.090600 0.545417
544.315800 0.563684
544.541000 0.508922
544.766200 0.530257
544.991500 0.470859
545.216700 0.488530
545.442000 0.521262
545.667300 0.550299
545.892600 0.545309
546.117900 0.509706
546.343200 0.469252
546.568500 0.453539
546.793800 0.513104
547.019200 0.435289
547.244500 0.501225
547.469900 0.475884
547.695300 0.443170
547.920600 0.478572
548.146000 0.443742
548.371500 0.434796
548.596900 0.441679
548.822300 0.452166
549.047800 0.439455
549.273200 0.395543
549.498700 0.395175
549.724200 0.427764
549.949600 0.439980
550.175100 0.424531
550.400700 0.413212
550.626200 0.422520
550.851700 0.388976
551.077300 0.386939
551.302800 0.412189
551.528400 0.372100
551.754000 0.360111
551.979600 0.439916
552.205200 0.399120
552.430800 0.377436
552.656400 0.381350
552.882000 0.379346
553.107700 0.349942
553.333300 0.370659
553.559000 0.317252
553.784700 0.358332
554.010400 0.354618
554.236100 0.341615
554.461800 0.356849
554.687500 0.318544
554.913200 0.331269
555.139000 0.339074
555.364800 0.326985
555.590500 0.320890
555.816300 0.280771
556.042100 0.329770
556.267900 0.311743
556.493700 0.330214
556.719500 0.297038
556.945400 0.309721
557.171200 0.301815
557.397100 0.295150
557.623000 0.299723
557.848800 0.292161
558.074700 0.276905
558.300600 0.262758
558.526600 0.275590
558.752500 0.301573
558.978400 0.288132
559.204400 0.286747
559.430300 0.242206
559.656300 0.233624
559.882300 0.260698
560.108300 0.228070
560.334300 0.246372
560.560300 0.244167
560.786300 0.271837
561.012400 0.221022
561.238400 0.240234
561.464500 0.233489
561.690500 0.245655
561.916600 0.237168
562.142700 0.224625
562.368800 0.235526
562.594900 0.253137
562.821100 0.270109
563.047200 0.259031
563.273300 0.212285
563.499500 0.223917
563.725700 0.233443
563.951900 0.196837
564.178100 0.218122
564.404300 0.214572
564.630500 0.208527
564.856700 0.217732
565.082900 0.212420
565.309200 0.205495
565.535500 0.217752
565.761700 0.179665
565.988000 0.193730
566.214300 0.188334
566.440600 0.178467
566.666900 0.169239
566.893200 0.171212
567.119600 0.169347
567.345900 0.176605
567.572300 0.184683
567.798700 0.151067
568.025000 0.168165
568.251400 0.188789
568.477800 0.180649
568.704300 0.175176
568.930700 0.153045
569.157100 0.168620
569.383600 0.158684
569.610000 0.157549
569.836500 0.154954
570.063000 0.155226
570.289500 0.160273
570.516000 0.153858
570.742500 0.140528
570.969000 0.141213
571.195600 0.146528
571.422100 0.143539
571.648700 0.148983
571.875200 0.150138
572.101800 0.141364
572.328400 0.142056
572.555000 0.146888
572.781600 0.149484
573.008200 0.135410
573.234900 0.137929
573.461500 0.128435
573.688200 0.126427
573.914900 0.133146
574.141500 0.124937
574.368200 0.130923
574.594900 0.115185
574.821600 0.122231
575.048400 0.121502
575.275100 0.121049
575.501800 0.127686
575.728600 0.103288
575.955400 0.108246
576.182100 0.129291
576.408900 0.113187
576.635700 0.110044
576.862600 0.114956
577.089400 0.105858
577.316200 0.114779
577.543100 0.108950
577.769900 0.105971
577.996800 0.104216
578.223700 0.102131
578.450500 0.097690
578.677400 0.109134
578.904400 0.100134
579.131300 0.098401
579.358200 0.086063
579.585100 0.088127
579.812100 0.088457
580.039100 0.087821
580.266000 0.079049
580.493000 0.077526
580.720000 0.082492
580.947000 0.077554
581.174100 0.082508
581.401100 0.084057
581.628100 0.086111
581.855200 0.080978
582.082200 0.090136
582.309300 0.084357
582.536400 0.068726
582.763500 0.073480
582.990600 0.071929
583.217700 0.065894
583.444900 0.065998
583.672000 0.061923
583.899100 0.064190
584.126300 0.059388
584.353500 0.060914
584.580700 0.060716
584.807900 0.070330
585.035100 0.070247
585.262300 0.075331
585.489500 0.077541
585.716700 0.069505
585.944000 0.070299
586.171300 0.065150
586.398500 0.061169
586.625800 0.069153
586.853100 0.055224
587.080400 0.051759
587.307700 0.052043
587.535000 0.056139
587.762400 0.049190
587.989700 0.048125
588.217100 0.048645
588.444500 0.059585
588.671800 0.053421
588.899200 0.059423
589.126600 0.053591
589.354000 0.063885
589.581500 0.050250
589.808900 0.046744
590.036300 0.055675
590.263800 0.055166
590.491300 0.052283
590.718700 0.044399
590.946200 0.049002
591.173700 0.044567
591.401200 0.033161
591.628800 0.050769
591.856300 0.042973
592.083800 0.048179
592.311400 0.033296
592.538900 0.042243
592.766500 0.051460
592.994100 0.054268
593.221700 0.046402
593.449300 0.043762
593.676900 0.044662
593.904600 0.051489
594.132200 0.044503
594.359800 0.043307
594.587500 0.040035
594.815200 0.036441
595.042900 0.044348
595.270500 0.037887
595.498300 0.033043
595.726000 0.042246
595.953700 0.035342
596.181400 0.034688
596.409200 0.035583
596.636900 0.045663
596.864700 0.044511
597.092500 0.034229
597.320300 0.038059
597.548100 0.032732
597.775900 0.037884
598.003700 0.029391
598.231500 0.036595
598.459400 0.046794
598.687200 0.053464
598.915100 0.039852
599.143000 0.039061
599.370900 0.044060
599.598800 0.045648
599.826700 0.032947
600.054600 0.031595
600.282500 0.041029
600.510500 0.033289
600.738400 0.037856
600.966400 0.030923
601.194400 0.029542
601.422300 0.021366
601.650300 0.015210
601.878300 0.029384
602.106400 0.030598
602.334400 0.029712
602.562400 0.040313
602.790500 0.027277
603.018500 0.027408
603.246600 0.037281
603.474700 0.030709
603.702800 0.027258
603.930900 0.047452
604.159000 0.039502
604.387100 0.028500
604.615200 0.035684
604.843400 0.030132
605.071500 0.030850
605.299700 0.024089
605.527900 0.025207
605.756100 0.021116
605.984300 0.009360
606.212500 0.010399
606.440700 0.021964
606.668900 0.014198
606.897200 0.013697
607.125400 0.019254
607.353700 0.012685
607.581900 0.015329
607.810200 0.021432
608.038500 0.014012
608.266800 0.011809
608.495100 0.012671
608.723500 0.006785
608.951800 0.019138
609.180100 0.016417
609.408500 0.020199
609.636900 0.008034
609.865300 0.015408
610.093600 0.014401
610.322000 0.023414
610.550500 0.020453
610.778900 0.020336
611.007300 0.014703
611.235700 0.012645
611.464200 0.029573
611.692700 0.006241
611.921100 0.012228
612.149600 0.016347
612.378100 0.012483
612.606600 0.019797
612.835100 0.012382
613.063700 0.006892
613.292200 0.014499
613.520800 0.010754
613.749300 0.010395
613.977900 0.011424
614.206500 0.013038
614.435100 0.019514
614.663700 0.015573
614.892300 0.024412
615.120900 0.012032
615.349500 0.028697
615.578200 0.013022
615.806800 0.023328
616.035500 0.008761
616.264200 0.010883
616.492900 0.016113
616.721600 0.008704
616.950300 0.013708
617.179000 0.011946
617.407700 0.011159
617.636500 0.001876
617.865200 0.010041
618.094000 0.000430
618.322700 -0.000878
618.551500 -0.001283
618.780300 0.009390
619.009100 0.009296
619.237900 0.027733
619.466700 0.010995
619.695600 0.007020
619.924400 0.008371
620.153300 0.019866
620.382100 0.006610
620.611000 0.021528
620.839900 0.000762
621.068800 -0.002488
621.297700 0.026143
621.526600 -0.003877
621.755600 0.006630
621.984500 0.010491
622.213500 0.005316
622.442400 0.002885
622.671400 0.015150
622.900400 0.006193
623.129400 0.009513
623.358400 0.016933
623.587400 0.011463
623.816400 -0.017274
624.045400 0.025632
624.274500 0.026506
624.503500 -0.001894
624.732600 -0.000321
624.961700 0.022001
625.190800 0.000156
625.419900 -0.007959
625.649000 0.016175
625.878100 0.011116
626.107200 -0.009638
626.336400 0.004483
626.565500 0.010846
626.794700 0.022061
627.023800 0.007553
627.253000 0.003054
627.482200 0.008639
627.711400 -0.007486
627.940600 0.014731
628.169800 -0.019778
628.399100 0.008333
628.628300 -0.020956
628.857600 0.003477
629.086800 0.003780
629.316100 -0.006101
629.545400 -0.019824
629.774700 0.032270
630.004000 0.013237
630.233300 0.002799
630.462600 0.026452
630.692000 0.012438
630.921300 0.006254
631.150700 0.010353
631.380100 0.000621
631.609400 -0.014752
631.838800 0.017863
632.068200 -0.001970
632.297600 0.006767
632.527100 0.018525
632.756500 0.009229
632.985900 -0.021025
633.215400 0.016121
633.444800 0.011197
633.674300 0.013883
633.903800 0.006923
634.133300 0.012971
634.362800 -0.014535
634.592300 -0.005567
634.821800 0.002277
635.051400 -0.000443
635.280900 -0.009902
635.510500 -0.012843
635.740000 0.005761
635.969600 0.015114
636.199200 -0.007869
636.428800 -0.009492
636.658400 0.024262
636.888000 -0.002952
637.117700 -0.005504
637.347300 -0.008952
637.577000 0.011571
637.806600 0.003202
638.036300 0.014477
638.266000 -0.002102
638.495700 -0.000432
638.725400 -0.002968
638.955100 -0.001107
639.184800 -0.001804
639.414500 0.011321
639.644300 -0.021866
639.874000 0.008761
640.103800 0.017437
640.333600 0.001352
640.563300 -0.012137
640.793100 0.025270
641.022900 0.019206
641.252800 -0.006555
641.482600 0.004074
641.712400 -0.028864
641.942300 -0.010414
642.172100 -0.000969
642.402000 -0.010823
642.631900 -0.041711
642.861700 -0.021764
643.091600 0.050919
643.321600 -0.011688
643.551500 -0.010210
643.781400 0.029054
644.011300 -0.019004
644.241300 -0.003347
644.471200 0.003092
644.701200 0.000655
644.931200 -0.018469
645.161200 -0.006388
645.391200 -0.002691
645.621200 0.022586
645.851200 -0.055891
646.081200 -0.005324
646.311300 0.016771
646.541300 -0.001864
646.771400 -0.044644
647.001500 -0.020572
647.231600 0.015348
647.461600 0.015747
647.691800 -0.001552
647.921900 -0.019947
648.152000 0.011205
648.382100 0.001456
648.612300 0.037996
648.842400 -0.032635
649.072600 0.011006
649.302800 0.014052
649.532900 -0.002918
649.763100 -0.000816
649.993300 -0.027632
650.223600 -0.001977
650.453800 -0.032868
650.684000 -0.007338
650.914300 0.018689
651.144500 0.012881
651.374800 0.041976
651.605100 -0.002270
651.835400 -0.022820
652.065700 0.014996
652.296000 -0.013541
652.526300 -0.013056
652.756600 -0.010651
652.987000 0.015045
653.217300 -0.020936
653.447700 -0.009550
653.678000 -0.005490
653.908400 -0.039930
654.138800 0.002279
654.369200 0.042039
654.599600 -0.000717
654.830000 -0.008624
655.060500 -0.005224
655.290900 0.001163
655.521300 0.018036
655.751800 0.029346
655.982300 0.002910
656.212800 0.000974
656.443300 0.001458
656.673800 0.001232
656.904300 0.002850
657.134800 0.021521
657.365300 0.016806
657.595900 0.016536
657.826400 0.017234
658.057000 0.017832
658.287500 0.014713
658.518100 0.007875
658.748700 0.019751
658.979300 0.013165
659.209900 -0.000541
659.440600 -0.025509
659.671200 -0.048226
659.901800 -0.052457
660.132500 -0.045566
660.363200 -0.026769
660.593800 -0.017136
660.824500 -0.012679
661.055200 -0.020580
661.285900 0.006532
661.516600 -0.017991
661.747400 0.009061
661.978100 -0.031412
662.208800 0.012996
662.439600 0.012035
662.670400 0.030256
662.901100 0.003023
663.131900 0.002553
663.362700 -0.016914
663.593500 0.018920
663.824300 0.011484
664.055200 -0.014226
664.286000 -0.003554
664.516800 -0.022242
664.747700 0.021935
664.978600 -0.002238
665.209400 -0.014623
665.440300 -0.011268
665.671200 0.008244
665.902100 0.014136
666.133000 -0.031614
666.364000 -0.046982
666.594900 0.001591
666.825900 -0.006758
667.056800 0.017136
667.287800 0.016499
667.518800 -0.013980
667.749700 0.042369
667.980700 0.041778
668.211700 -0.020982
668.442800 -0.008167
668.673800 0.009853
668.904800 0.011994
669.135900 0.004440
669.366900 -0.011067
669.598000 -0.037689
669.829100 0.016685
670.060200 0.007112
670.291300 0.012918
670.522400 -0.000893
670.753500 -0.005501
670.984600 0.008375
671.215700 -0.001564
671.446900 0.019678
671.678100 0.032445
671.909200 0.016726
672.140400 0.014780
672.371600 -0.001561
672.602800 0.031134
672.834000 -0.024066
673.065200 -0.015386
673.296400 -0.008277
673.527700 0.000041
673.758900 -0.018458
673.990200 0.001717
674.221400 0.010052
674.452700 0.009404
674.684000 -0.023922
674.915300 0.028393
675.146600 -0.012919
675.377900 -0.032444
675.609300 -0.009933
675.840600 0.022537
676.071900 -0.002528
676.303300 -0.017853
676.534700 -0.051296
676.766100 -0.007259
676.997400 -0.020074
677.228800 -0.007171
677.460200 -0.011882
677.691700 -0.000108
677.923100 0.020017
678.154500 0.024479
678.386000 -0.001040
678.617400 -0.028984
678.848900 0.006169
679.080400 -0.003889
679.311900 -0.013589
679.543400 -0.013444
679.774900 -0.002042
680.006400 0.021412
680.237900 -0.012752
680.469400 0.011780
680.701000 0.025472
680.932500 -0.013234
681.164100 0.009307
681.395700 0.005274
681.627300 0.015127
681.858900 0.005489
682.090500 0.001782
682.322100 -0.004373
682.553700 0.009716
682.785400 0.012376
683.017000 -0.009234
683.248700 -0.002878
683.480300 -0.026428
683.712000 -0.020479
683.943700 -0.003466
684.175400 0.026635
684.407100 0.033503
684.638800 0.007236
684.870500 0.013271
685.102300 -0.006437
685.334000 0.000496
685.565800 0.034768
685.797500 0.007560
686.029300 0.001916
686.261100 0.027685
686.492900 0.000476
686.724700 -0.026806
686.956500 -0.012786
687.188300 0.006964
687.420200 0.007250
687.652000 0.012839
687.883800 -0.018217
688.115700 -0.019671
688.347600 -0.018346
688.579500 -0.006752
688.811400 -0.024129
689.043300 -0.000726
689.275200 0.015754
689.507100 0.016857
689.739000 -0.019313
689.971000 0.023831
690.202900 -0.013149
690.434900 -0.006107
690.666900 0.005863
690.898800 0.006882
691.130800 -0.016731
691.362800 0.025727
691.594800 0.004823
691.826900 -0.001308
692.058900 0.011376
692.290900 0.019818
692.523000 0.018620
692.755000 0.009799
692.987100 0.029158
693.219200 0.021174
693.451300 0.016328
693.683400 0.026065
693.915500 0.003465
694.147600 -0.022604
694.379700 0.022567
694.611900 0.008873
694.844000 -0.015568
695.076200 -0.020902
695.308300 0.013518
695.540500 -0.000392
695.772700 -0.031118
696.004900 0.000483
696.237100 0.009909
696.469300 -0.005574
696.701600 0.000886
696.933800 -0.007623
697.166000 0.018509
697.398300 -0.007894
697.630600 0.013933
697.862800 0.034502
698.095100 0.032844
698.327400 0.004408
698.559700 -0.016272
698.792000 -0.031010
699.024300 -0.014225
699.256700 0.009755
699.489000 -0.007070
699.721400 -0.014264
699.953700 0.007057
700.186100 -0.019929
700.418500 -0.021904
700.650900 0.018563
700.883300 0.002083
701.115700 -0.018240
701.348100 -0.017950
701.580600 -0.000103
701.813000 -0.010551
702.045400 -0.018364
702.277900 -0.010655
702.510400 0.003085
702.742900 -0.015463
702.975300 0.006300
703.207800 -0.011048
703.440300 0.027382
703.672900 0.009831
703.905400 -0.017852
704.137900 -0.005650
704.370500 0.005576
704.603000 0.014364
704.835600 0.002698
705.068200 -0.016139
705.300800 -0.026232
705.533400 -0.022504
705.766000 -0.037744
705.998600 0.012013
706.231200 -0.014879
706.463800 -0.013321
706.696500 0.014549
706.929100 -0.019147
707.161800 -0.011138
707.394500 0.027302
707.627200 -0.003227
707.859900 0.026400
708.092600 0.004948
708.325300 0.007157
708.558000 -0.000242
708.790700 0.012534
709.023500 -0.013917
709.256200 -0.001201
709.489000 -0.034698
709.721700 -0.034587
709.954500 -0.014853
710.187300 -0.036026
710.420100 -0.002953
710.652900 -0.023958
710.885700 -0.030886
711.118600 -0.039876
711.351400 -0.022432
711.584200 0.013764
711.817100 0.006134
712.050000 -0.003697
712.282800 -0.018908
712.515700 0.019140
712.748600 0.004544
712.981500 -0.030782
713.214400 -0.009874
713.447400 -0.028880
713.680300 0.001698
713.913200 -0.017116
714.146200 -0.027369
714.379100 0.002192
714.612100 0.002240
714.845100 -0.019717
715.078100 0.003729
715.311100 -0.037590
715.544100 -0.024557
715.777100 -0.003326
716.010200 -0.036128
716.243200 -0.013524
716.476200 0.015251
716.709300 0.004886
716.942400 -0.011962
717.175400 0.002393
717.408500 0.011120
717.641600 -0.029168
717.874700 -0.046300
718.107800 -0.008459
718.341000 0.029620
718.574100 -0.012748
718.807200 -0.003490
719.040400 -0.003847
719.273600 -0.016953
719.506700 0.004479
719.739900 0.015199
719.973100 -0.015982
720.206300 -0.019563
720.439500 -0.001844
720.672700 -0.042475
720.906000 0.015632
721.139200 -0.000711
721.372500 -0.003804
721.605700 0.023516
721.839000 0.010308
722.072300 -0.038788
722.305500 -0.047296
722.538800 -0.018690
722.772100 0.000923
723.005500 -0.008336
723.238800 0.018907
723.472100 -0.023972
723.705500 0.006447
723.938800 -0.012442
724.172200 0.009364
724.405600 0.019129
724.638900 0.016686
724.872300 -0.006966
725.105700 0.019394
725.339100 0.010881
725.572600 0.032635
725.806000 -0.019114
726.039400 0.028999
726.272900 0.003271
726.506300 -0.002249
726.739800 -0.013953
726.973300 0.004086
727.206800 0.001289
727.440300 0.017576
727.673800 -0.003014
727.907300 -0.017628
728.140800 -0.011843
728.374300 0.001770
728.607900 0.017257
728.841400 -0.022823
729.075000 0.022168
729.308600 -0.006420
729.542100 -0.011394
729.775700 -0.012991
730.009300 -0.010988
730.242900 0.013319
730.476600 0.022050
730.710200 0.019461
730.943800 0.018053
731.177500 0.029685
731.411100 0.005531
731.644800 0.025291
731.878500 -0.010284
732.112200 0.010164
732.345800 -0.006036
732.579500 0.031022
732.813300 -0.005712
733.047000 0.004354
733.280700 0.020096
733.514500 -0.011887
733.748200 0.025477
733.982000 0.020513
734.215700 0.012877
734.449500 -0.003024
734.683300 0.010581
734.917100 -0.011773
735.150900 -0.003763
735.384700 -0.015852
735.618500 0.035031
735.852400 0.008083
736.086200 0.023170
736.320100 0.001280
736.553900 -0.011536
736.787800 -0.008123
737.021700 -0.006052
737.255600 0.000507
737.489500 0.002108
737.723400 -0.001365
737.957300 -0.039108
738.191200 -0.010334
738.425200 0.003016
738.659100 -0.007561
738.893100 -0.018768
739.127100 0.000768
739.361000 -0.015848
739.595000 0.026106
739.829000 -0.000431
740.063000 -0.012641
740.297000 -0.013987
740.531000 -0.002655
740.765100 0.014168
740.999100 0.011549
741.233200 0.005367
741.467200 0.006005
741.701300 0.003724
741.935400 0.008521
742.169500 -0.035494
742.403600 -0.012730
742.637700 -0.018232
742.871800 -0.010356
743.105900 0.010966
743.340000 -0.001127
743.574200 -0.026672
743.808300 -0.026280
744.042500 0.010783
744.276700 -0.026611
744.510800 -0.005484
744.745000 -0.025886
744.979200 0.028622
745.213400 -0.020110
745.447700 -0.010134
745.681900 -0.029627
745.916100 0.006482
746.150400 -0.028001
746.384600 -0.000117
746.618900 -0.020318
746.853200 -0.004409
747.087400 -0.018753
747.321700 0.000324
747.556000 -0.009099
747.790300 -0.020032
748.024700 -0.048166
748.259000 -0.009640
748.493300 0.010014
748.727700 -0.001839
748.962000 0.015923
749.196400 -0.008602
749.430800 -0.005500
749.665200 -0.011775
749.899500 0.009580
750.133900 -0.047923
750.368400 -0.007627
750.602800 -0.000794
750.837200 -0.007569
751.071700 0.017138
751.306100 0.027011
751.540600 -0.030344
751.775000 0.021440
752.009500 0.007506
752.244000 0.001397
752.478500 -0.019047
752.713000 0.012702
752.947500 -0.030127
753.182000 -0.002188
753.416600 -0.010639
753.651100 0.008554
753.885600 -0.002745
754.120200 0.006712
754.354800 -0.006871
754.589400 0.010862
754.823900 -0.020209
755.058500 -0.002475
755.293100 -0.022826
755.527800 0.005358
755.762400 0.015456
755.997000 -0.011734
756.231700 0.003620
756.466300 -0.002378
756.701000 0.013440
756.935600 0.009378
757.170300 -0.006146
757.405000 0.028402
757.639700 0.004185
757.874400 0.025815
758.109100 0.005682
758.343800 0.015359
758.578600 0.000682
758.813300 0.015676
759.048100 -0.006260
759.282800 -0.009235
759.517600 0.001447
759.752400 0.014187
759.987200 -0.008220
760.222000 0.005454
760.456800 0.010007
760.691600 0.000760
760.926400 0.000630
761.161300 -0.002471
761.396100 0.002723
761.631000 0.004034
761.865800 0.036826
762.100700 -0.002518
762.335600 0.011451
762.570500 -0.010207
762.805400 -0.005656
763.040300 -0.018686
763.275200 0.007734
763.510100 0.014266
763.745000 0.021504
763.980000 0.007881
764.214900 -0.020201
764.449900 0.022248
764.684900 -0.001941
764.919800 -0.006583
765.154800 -0.026593
765.389800 0.020980
765.624800 0.034286
765.859900 -0.013999
766.094900 -0.014758
766.329900 -0.000528
766.565000 -0.002063
766.800000 -0.023805
767.035100 -0.003195
767.270100 -0.012469
767.505200 -0.004496
767.740300 -0.006124
767.975400 0.004957
768.210500 0.021645
768.445600 -0.020557
768.680800 0.002610
768.915900 0.014442
769.151000 0.001269
769.386200 -0.000710
769.621400 -0.003699
769.856500 0.008488
770.091700 -0.005669
770.326900 0.008995
770.562100 0.000861
770.797300 -0.015800
771.032500 0.007108
771.267700 0.005622
771.503000 -0.010882
771.738200 0.014311
771.973500 -0.027575
772.208700 0.011743
772.444000 0.001269
772.679300 -0.008991
772.914600 -0.004213
773.149900 0.001882
773.385200 -0.023036
773.620500 0.017240
773.855800 0.009437
774.091100 -0.044783
774.326500 -0.007234
774.561800 -0.000656
774.797200 0.004195
775.032600 0.024812
775.267900 -0.017493
775.503300 -0.009632
775.738700 -0.015372
775.974100 0.011583
776.209500 0.004200
776.445000 -0.004828
776.680400 0.007133
776.915800 0.028866
777.151300 -0.024723
777.386800 0.029047
777.622200 -0.028805
777.857700 -0.007424
778.093200 0.029456
778.328700 -0.020028
778.564200 -0.030069
778.799700 -0.014988
779.035200 -0.013201
779.270700 -0.014875
779.506300 -0.014918
779.741800 0.001846
779.977400 -0.042477
780.213000 -0.012413
780.448500 0.018764
780.684100 -0.006874
780.919700 0.035070
781.155300 -0.035494
781.390900 0.022627
781.626500 -0.003819
781.862200 0.012387
782.097800 0.018293
782.333500 -0.005302
782.569100 0.019350
782.804800 -0.005772
783.040500 -0.000130
783.276100 -0.017244
783.511800 -0.012833
783.747500 0.016497
783.983200 -0.003719
784.219000 -0.005834
784.454700 -0.011607
784.690400 0.028651
784.926200 0.020814
785.161900 -0.003587
785.397700 -0.009652
785.633500 -0.022622
785.869200 -0.007614
786.105000 0.018880
786.340800 -0.001037
786.576600 -0.004057
786.812400 0.033143
787.048300 -0.008251
787.284100 0.006037
787.519900 -0.009024
787.755800 -0.000711
787.991700 -0.011792
788.227500 -0.040065
788.463400 -0.008979
788.699300 -0.028231
788.935200 0.004668
789.171100 0.004748
789.407000 -0.010277
789.642900 0.034422
789.878900 -0.013105
790.114800 -0.009948
790.350700 -0.031643
790.586700 0.003043
790.822700 -0.014907
791.058600 -0.002197
791.294600 -0.007374
791.530600 -0.002914
791.766600 -0.000820
792.002600 -0.016052
792.238700 -0.008405
792.474700 0.010060
792.710700 -0.025512
792.946800 -0.033430
793.182800 -0.030318
793.418900 -0.028675
793.655000 -0.011273
793.891000 0.002036
794.127100 0.013229
794.363200 0.004920
794.599300 -0.026406
794.835500 -0.004820
795.071600 0.010277
795.307700 -0.002926
795.543900 0.015253
795.780000 -0.016722
796.016200 -0.012645
796.252300 -0.004095
796.488500 -0.005197
796.724700 -0.001214
796.960900 0.011602
797.197100 -0.032468
797.433300 -0.023692
797.669500 -0.003535
797.905800 0.032102
798.142000 -0.000825
798.378300 -0.021194
798.614500 -0.005113
798.850800 -0.000091
799.087100 0.008949
799.323300 0.019086
799.559600 -0.051146
799.795900 -0.024815
800.032200 0.001838
800.268600 -0.006490
800.504900 -0.006978
800.741200 -0.001694
800.977600 0.018991
801.213900 -0.025376
801.450300 0.062288
801.686700 0.011212
801.923000 0.006261
802.159400 0.007646
802.395800 0.000803
802.632200 0.012195
802.868600 -0.075058
803.105100 -0.029428
803.341500 0.011613
803.577900 0.006520
803.814400 -0.024425
804.050800 -0.010115
804.287300 -0.019825
804.523800 -0.033413
804.760300 -0.011501
804.996800 -0.022677
805.233300 -0.024587
805.469800 0.024426
805.706300 0.003834
805.942800 -0.073036
806.179400 -0.027993
806.415900 -0.017208
806.652500 0.007397
806.889000 0.026753
807.125600 -0.002909
807.362200 -0.014664
807.598800 0.004244
807.835400 -0.016771
808.072000 0.032071
808.308600 -0.005035
808.545200 -0.021007
808.781800 -0.025455
809.018500 0.008211
809.255100 -0.011705
809.491800 0.010317
809.728400 -0.002316
809.965100 -0.017148
810.201800 -0.004552
810.438500 -0.064076
810.675200 0.010299
810.911900 -0.012313
811.148600 0.007088
811.385300 0.001165
811.622100 -0.058689
811.858800 -0.045148
812.095600 -0.057416
812.332300 0.021354
812.569100 -0.059206
812.805900 -0.002855
813.042700 0.022090
813.279500 0.000284
813.516300 -0.055632
813.753100 0.011010
813.989900 0.015367
814.226700 0.020740
814.463600 0.001393
814.700400 -0.008169
814.937300 -0.048461
815.174200 0.009987
815.411000 -0.035773
815.647900 -0.065761
815.884800 0.012965
816.121700 -0.018619
816.358600 -0.051615
816.595500 0.005404
816.832400 -0.010924
817.069400 0.002828
817.306300 0.010608
817.543300 -0.046622
817.780200 -0.034136
818.017200 0.019414
818.254200 0.055955
818.491200 -0.005803
818.728200 0.002939
818.965200 0.029201
819.202200 -0.002800
819.439200 -0.021015
819.676200 0.004507
819.913300 -0.025474
820.150300 -0.040024
820.387400 0.061559
820.624400 0.018695
820.861500 -0.049795
821.098600 0.025234
821.335700 0.020501
821.572700 -0.044511
821.809900 0.047145
822.047000 0.031054
822.284100 -0.039989
822.521200 -0.013361
822.758400 0.039416
822.995500 -0.035532
823.232700 0.011180
823.469800 0.045676
823.707000 -0.070396
823.944200 0.011424
824.181400 0.093294
824.418600 -0.025511
824.655800 -0.006060
824.893000 0.021783
825.130200 -0.067905
825.367500 -0.019372
825.604700 -0.009770
825.841900 0.003025
826.079200 0.041154
826.316500 -0.012896
826.553700 -0.027347
826.791000 0.037333
827.028300 0.074348
827.265600 0.008154
827.502900 0.017412
827.740200 -0.021766
827.977600 -0.018662
828.214900 0.023322
828.452200 -0.001749
828.689600 0.021799
828.927000 -0.030835
829.164300 -0.056896
829.401700 -0.021471
829.639100 -0.010134
829.876500 -0.027407
830.113900 -0.001795
830.351300 -0.031926
830.588700 -0.019705
830.826100 0.013666
831.063600 -0.033058
831.301000 0.036063
831.538500 -0.035859
831.775900 0.016002
832.013400 -0.054319
832.250900 -0.015519
832.488400 -0.011330
832.725900 0.039322
832.963400 0.039640
833.200900 0.048724
833.438400 -0.030691
833.675900 0.018163
833.913500 -0.025268
834.151000 -0.034759
834.388600 0.083588
834.626100 -0.014489
834.863700 0.040386
835.101300 -0.042995
835.338900 -0.023085
835.576500 -0.059427
835.814100 -0.021966
836.051700 -0.037720
836.289300 0.067829
836.526900 -0.084023
836.764600 0.015042
837.002200 -0.067581
837.239900 0.076444
837.477500 0.049671
837.715200 -0.126142
837.952900 0.096781
838.190600 0.015737
838.428300 -0.059324
838.666000 0.027748
838.903700 -0.037342
839.141400 -0.027290
839.379100 -0.072733
839.616900 -0.102682
839.854600 -0.005530
840.092400 0.051392
840.330200 0.016721
840.567900 0.156644
840.805700 0.063387
841.043500 0.044383
841.281300 0.064498
841.519100 -0.093725
841.756900 -0.040711
841.994700 -0.117257
842.232600 -0.001052
842.470400 0.004355
842.708200 -0.082601
842.946100 -0.061360
843.184000 -0.130796
843.421800 0.096439
843.659700 0.011899
843.897600 -0.071146
844.135500 0.076025
844.373400 0.025385
844.611300 0.052091
844.849200 -0.074216
845.087200 -0.020294
845.325100 -0.026947
845.563100 -0.043313
845.801000 0.025803
846.039000 -0.054651
846.277000 -0.083845
846.514900 -0.042113
846.752900 -0.032875
846.990900 -0.144613
847.228900 -0.206330
847.466900 0.086806
847.705000 -0.044926
847.943000 -0.075696
848.181000 0.043292
848.419100 0.020574
848.657100 -0.021554
848.895200 -0.133776
849.133300 -0.006233
849.371300 -0.045108
849.609400 0.191131
849.847500 -0.043712
850.085600 0.147701
850.323700 0.013434
850.561900 -0.037020
850.800000 -0.092625
851.038100 0.090394
851.276300 -0.079709
851.514400 -0.114068
851.752600 -0.062467
851.990800 -0.155929
852.228900 0.001050
852.467100 -0.008218
852.705300 -0.043339
852.943500 -0.011434
853.181700 -0.050062
853.420000 -0.072105
853.658200 -0.013557
853.896400 0.074876
854.134700 -0.030711
854.372900 0.008503
854.611200 0.035338
854.849500 0.018927
855.087700 -0.012660
855.326000 0.034981
855.564300 0.008877
855.802600 0.033536
856.040900 -0.021018
856.279200 0.040624
856.517600 -0.025354
856.755900 -0.005655
856.994200 -0.069567
857.232600 0.024706
857.471000 -0.087592
857.709300 -0.011435
857.947700 -0.054229
858.186100 0.038366
858.424500 -0.067845
858.662900 0.055375
858.901300 0.031133
859.139700 0.031534
859.378100 -0.101884
859.616600 -0.029720
859.855000 -0.022140
860.093500 -0.048336
860.331900 -0.047272
860.570400 0.024369
860.808900 -0.021459
861.047300 -0.058547
861.285800 0.003447
861.524300 0.226178
861.762800 0.029468
862.001300 -0.047276
862.239900 0.089246
862.478400 -0.002822
862.716900 -0.039105
862.955500 0.104277
863.194000 -0.049709
863.432600 -0.063539
863.671200 0.056022
863.909800 -0.088713
864.148300 -0.028111
864.386900 0.035153
864.625500 0.008731
864.864200 -0.043017
865.102800 -0.068991
865.341400 -0.058534
865.580000 -0.056467
865.818700 -0.104414
866.057300 -0.003988
866.296000 -0.100220
866.534700 -0.100880
866.773300 0.065123
867.012000 -0.074611
867.250700 0.152121
867.489400 -0.105090
867.728100 0.002214
867.966900 0.025841
868.205600 -0.047140
868.444300 0.098711
868.683100 0.041212
868.921800 -0.105106
869.160600 0.103646
869.399300 -0.042801
869.638100 -0.049695
869.876900 -0.077856
870.115700 -0.064958
870.354500 0.067358
870.593300 -0.034632
870.832100 0.141960
871.070900 0.009614
871.309700 -0.065876
871.548600 0.064913
871.787400 -0.046829
872.026300 -0.089434
872.265100 -0.118197
872.504000 -0.119825
872.742900 -0.023395
872.981800 -0.021523
873.220700 -0.000461
873.459600 0.039181
873.698500 -0.009643
873.937400 -0.011811
874.176300 0.016022
874.415300 -0.016963
874.654200 -0.001260
874.893200 -0.044922
875.132100 0.035786
875.371100 0.024507
875.610100 0.032805
875.849100 0.061451
876.088000 0.014760
876.327000 0.083832
876.566100 0.055447
876.805100 -0.024684
877.044100 -0.084967
877.283100 -0.040353
877.522200 0.045780
877.761200 -0.062186
878.000300 0.033577
878.239300 -0.013318
878.478400 -0.025982
878.717500 0.028096
878.956600 0.056683
879.195700 0.041491
879.434800 -0.042584
879.673900 0.105079
879.913000 0.027306
880.152100 0.060191
880.391300 -0.021482
880.630400 0.070734
880.869600 -0.002177
881.108700 -0.033596
881.347900 0.007856
881.587100 0.049045
881.826200 0.059961
882.065400 -0.006471
882.304600 -0.105088
882.543800 -0.031478
882.783100 0.027359
883.022300 -0.036607
883.261500 -0.100861
883.500700 0.008263
883.740000 -0.014650
883.979200 0.007487
884.218500 -0.037256
884.457800 -0.052988
884.697100 0.020105
884.936300 -0.055678
885.175600 0.059821
885.414900 -0.011155
885.654200 0.056419
885.893600 -0.006349
886.132900 -0.006056
886.372200 -0.029925
886.611600 -0.115805
886.850900 0.105453
887.090300 0.063917
887.329600 -0.012404
887.569000 -0.030429
887.808400 -0.034532
888.047800 -0.140495
888.287200 -0.097276
888.526600 -0.081201
888.766000 -0.184376
889.005400 0.118764
889.244800 0.028959
889.484300 -0.053893
889.723700 0.105117
889.963200 0.043489
890.202600 -0.044264
890.442100 -0.051854
890.681600 0.032431
890.921100 0.014116
891.160600 0.032960
891.400100 0.015040
891.639600 0.069174
891.879100 0.071098
892.118600 0.064376
892.358100 -0.129358
892.597700 0.092346
892.837200 -0.003431
893.076800 0.065961
893.316300 -0.001303
893.555900 0.092942
893.795500 0.017224
894.035100 -0.090400
894.274700 -0.027878
894.514300 -0.058336
894.753900 -0.064703
894.993500 0.063858
895.233100 -0.188914
895.472700 -0.046447
895.712400 0.000333
895.952000 -0.025935
896.191700 -0.065975
896.431400 -0.010535
896.671000 0.088472
896.910700 0.098478
897.150400 -0.043153
897.390100 -0.040521
897.629800 0.030171
897.869500 -0.110747
898.109200 -0.064711
898.348900 -0.010657
898.588700 -0.072460
898.828400 0.018153
899.068200 -0.019885
899.307900 -0.026977
899.547700 -0.018434
899.787500 0.028039
900.027200 -0.106767
900.267000 -0.034906
900.506800 -0.023395
900.746600 -0.035554
900.986400 -0.007629
901.226300 -0.116107
901.466100 -0.032758
901.705900 0.004633
901.945800 -0.137511
902.185600 -0.094194
902.425500 -0.144507
902.665400 -0.140277
902.905200 0.069672
903.145100 0.057630
903.385000 -0.090665
903.624900 0.077859
903.864800 -0.006589
904.104700 0.015209
904.344600 0.009736
904.584600 -0.055786
904.824500 0.025415
905.064400 0.065826
905.304400 -0.021596
905.544400 -0.049483
905.784300 0.122612
906.024300 0.059304
906.264300 0.019284
906.504300 -0.051618
906.744300 0.055168
906.984300 -0.157703
907.224300 0.088232
907.464300 0.018431
907.704300 -0.126546
907.944400 0.011737
908.184400 -0.136652
908.424500 -0.077229
908.664500 -0.096784
908.904600 -0.077311
909.144700 -0.063993
909.384700 0.079920
909.624800 -0.169562
909.864900 0.027030
910.105000 -0.061959
910.345200 -0.238075
910.585300 0.031543
910.825400 0.005465
911.065500 0.085831
911.305700 0.100912
911.545800 -0.059226
911.786000 0.062201
912.026200 -0.084328
912.266300 0.094000
912.506500 -0.088542
912.746700 -0.026641
912.986900 -0.106986
913.227100 0.037040
913.467300 -0.023885
913.707500 -0.193276
913.947800 0.058915
914.188000 0.069632
914.428300 -0.037162
914.668500 0.050266
914.908800 -0.153754
915.149000 -0.049667
915.389300 0.007621
915.629600 0.143976
915.869900 -0.034725
916.110200 -0.036878
916.350500 -0.021460
916.590800 0.006653
916.831100 0.026226
917.071400 -0.071798
917.311800 0.037213
917.552100 -0.088003
917.792500 -0.047720
918.032800 0.006230
918.273200 0.004011
918.513600 -0.067808
918.753900 0.045320
918.994300 -0.068556
919.234700 0.066419
919.475100 0.108470
919.715500 0.054709
919.956000 0.126194
920.196400 -0.076066
920.436800 -0.017128
920.677300 -0.140738
920.917700 0.064484
921.158200 0.063920
921.398600 0.130873
921.639100 0.073543
921.879600 -0.124840
922.120100 -0.098826
922.360600 0.036707
922.601100 -0.058657
922.841600 0.073721
923.082100 -0.048240
923.322600 -0.051197
923.563100 -0.102271
923.803700 0.105327
924.044200 0.169656
924.284800 0.008842
924.525400 -0.051630
924.765900 0.233707
925.006500 -0.058326
925.247100 0.025559
925.487700 -0.159204
925.728300 0.105877
925.968900 -0.187046
926.209500 0.029896
926.450100 0.103916
926.690800 0.069373
926.931400 -0.013280
927.172000 -0.106676
927.412700 -0.109823
927.653300 -0.021861
927.894000 0.159362
928.134700 0.026051
928.375400 -0.152623
928.616100 0.091990
928.856800 -0.139314
929.097500 -0.169692
929.338200 0.105936
929.578900 0.079690
929.819600 0.013019
930.060400 -0.228643
930.301100 -0.106154
930.541900 -0.189118
930.782600 -0.007807
931.023400 -0.121378
931.264200 0.103093
931.504900 0.145173
931.745700 0.126992
931.986500 -0.072551
932.227300 0.144937
932.468100 0.040969
932.708900 0.048906
932.949800 0.021924
933.190600 0.155454
933.431400 0.042605
933.672300 -0.065559
933.913100 -0.059586
934.154000 0.205304
934.394900 0.099703
934.635800 -0.142323
934.876600 0.023689
935.117500 0.045926
935.358400 0.234699
935.599300 0.151577
935.840300 -0.155167
936.081200 0.185139
936.322100 -0.158829
936.563000 0.321302
936.804000 0.115622
937.044900 -0.376146
937.285900 -0.050808
937.526900 -0.156852
937.767800 0.187963
938.008800 -0.122568
938.249800 1.028671
938.490800 0.009135
938.731800 0.332705
938.972800 0.229633
939.213800 0.330859
939.454900 0.220096
939.695900 0.219607
939.936900 -0.025994
940.178000 -0.092558
940.419000 -0.204360
940.660100 0.068584
940.901200 0.020506
941.142200 -0.023202
941.383300 0.139986
941.624400 -0.268986
941.865500 -0.000844
942.106600 0.133092
942.347700 -0.372340
942.588900 -0.067085
942.830000 -0.271676
943.071100 -0.450346
943.312300 0.120964
943.553400 0.021293
943.794600 -0.021758
944.035700 0.310698
944.276900 -0.256310
944.518100 -0.093270
944.759300 0.076090
945.000500 -0.436503
945.241700 0.035431
945.482900 0.192504
945.724100 0.194378
945.965300 -0.144103
946.206600 0.168070
946.447800 0.076114
946.689100 -0.026519
946.930300 -0.762147
947.171600 0.459498
947.412800 -0.112093
947.654100 -0.129339
947.895400 0.128587
948.136700 -0.169286
948.378000 -0.324826
948.619300 -0.044196
948.860600 3.265290
949.101900 0.273459
949.343300 -0.306552
949.584600 0.039323
949.825900 -0.117107
950.067300 0.786730
950.308600 0.396108
950.550000 0.695081
950.791400 -0.553755
951.032700 -0.257917
951.274100 -0.098911
951.515500 -0.031143
951.756900 -0.101906
951.998300 -0.074920
952.239800 -0.145249
952.481200 0.381451
952.722600 -0.412920
952.964000 -0.041873
953.205500 0.396978
953.446900 -0.118815
953.688400 0.113774
953.929900 -0.050279
954.171300 -1.451084
954.412800 0.402817
954.654300 0.131173
954.895800 -0.198016
955.137300 -0.117501
955.378800 -0.284265
955.620300 -0.220082
955.861800 0.074543
956.103400 -0.025025
956.344900 -0.095961
956.586500 0.013506
956.828000 -0.141152
957.069600 -0.347234
957.311100 -0.505332
957.552700 0.012386
957.794300 -0.101877
958.035900 -0.255063
958.277500 -0.406020
958.519100 0.102554
958.760700 0.014086
959.002300 0.607151
959.243900 0.122565
959.485600 0.448733
959.727200 0.306610
959.968800 -0.104698
960.210500 -0.564876
960.452200 0.154991
960.693800 -0.302858
960.935500 -3.531223
961.177200 -0.263153
961.418900 0.250092
961.660600 -0.206133
961.902300 0.196918
962.144000 -0.367186
962.385700 -0.204821
962.627400 0.137554
962.869200 2.719331
963.110900 -0.140060
963.352700 -0.398191
963.594400 0.891091
963.836200 0.720812
964.077900 0.521799
964.319700 3.145818
964.561500 0.065050
964.803300 -0.023912
965.045100 -0.141821
965.286900 -0.407790
965.528700 -0.273277
965.770500 -0.201847
966.012300 0.104735
966.254200 0.262774
966.496000 -0.709947
966.737900 0.677909
966.979700 -0.190064
967.221600 0.208472
967.463400 -0.043252
967.705300 3.152288
967.947200 0.044161
968.189100 -0.415797
968.431000 0.103213
968.672900 -0.137762
968.914800 -0.285356
969.156700 0.119762
969.398700 -0.302955
969.640600 -1.131976
969.882500 0.182204
970.124500 -0.412031
970.366400 1.039253
970.608400 -0.189773
970.850400 -0.076634
971.092300 -0.471307
971.334300 0.552588
971.576300 0.233303
971.818300 0.559824
972.060300 -0.067698
972.302300 -0.082663
972.544300 -0.327543
972.786400 0.452798
973.028400 3.206826
973.270400 -0.004027
973.512500 -0.166282
973.754500 -0.014732
973.996600 -0.107677
974.238700 0.825793
974.480700 0.574945
974.722800 0.616339
974.964900 0.330822
975.207000 0.334560
975.449100 -0.701750
975.691200 -0.326762
975.933300 -0.186508
976.175500 -3.306639
976.417600 0.365411
976.659700 3.082785
976.901900 0.152958
977.144000 0.205348
977.386200 -0.242144
977.628300 1.327455
977.870500 0.911363
978.112700 -0.347150
978.354900 0.196191
978.597100 0.572771
978.839300 0.467254
979.081500 -0.168250
979.323700 -2.829304
979.565900 0.017297
979.808200 3.265290
980.050400 0.161510
980.292600 -0.179202
980.534900 -0.035993
980.777100 0.470217
981.019400 -0.173526
981.261700 -0.127663
981.504000 0.371165
981.746200 -0.910777
981.988500 0.346741
982.230800 0.367750
982.473100 0.048616
982.715500 0.260403
982.957800 -0.273277
983.200100 0.762452
983.442400 -0.498918
983.684800 0.012589
983.927100 0.223903
984.169500 2.985426
984.411800 -0.228109
984.654200 -0.342011
984.896600 0.050973
985.139000 -1.932712
985.381400 -0.238290
985.623800 0.270576
985.866200 -0.093894
986.108600 -3.283527
986.351000 0.041075
986.593400 -0.127232
986.835800 -0.056779
987.078300 -0.198669
987.320700 -0.361598
987.563200 -0.114874
987.805600 -0.946754
988.048100 0.417622
988.290600 -0.421421
988.533100 -2.324282
988.775600 2.980458
989.018000 0.100757
989.260500 -0.008810
989.503100 -2.685742
989.745600 -0.313899
989.988100 -3.102434
990.230600 0.216791
990.473200 -0.113323
990.715700 -0.020846
990.958200 2.523746
991.200800 -0.147576
991.443400 -3.169380
991.685900 -0.158527
991.928500 -2.996512
992.171100 -1.105510
992.413700 0.801524
992.656300 0.059234
992.898900 -0.426633
993.141500 -0.009325
993.384100 0.618482
993.626700 0.307020
993.869400 1.438203
994.112000 0.481898
994.354700 0.539932
994.597300 0.363677
994.840000 -2.739572
995.082600 -0.689374
995.325300 -0.586612
995.568000 -0.180037
995.810700 -0.558637
996.053400 -0.417240
996.296100 -0.342011
996.538800 0.074953
996.781500 3.171141
997.024200 2.049218
997.267000 0.166378
997.509700 0.129769
997.752400 -0.146762
997.995200 -0.005752
998.237900 2.701568
998.480700 0.074843
998.723500 -1.322219
998.966200 0.216596
999.209000 0.000000
999.451800 3.003891
999.694600 0.057700
999.937400 -0.348455
1000.180200 0.310140
1000.423000 -0.049046
1000.665900 2.907949
1000.908700 -0.779312
1001.151500 0.803262
1001.394400 0.119762
1001.637200 0.013625
1001.880100 -2.528488
1002.123000 -0.269472
1002.365800 -0.622053
1002.608700 -0.835746
1002.851600 1.290035
1003.094500 -0.118845
1003.337400 -0.708859
1003.580300 -3.056905
1003.823200 -0.672808
1004.066100 2.945961
1004.309100 -0.136793
1004.552000 0.342082
1004.794900 0.222260
1005.037900 3.129368
1005.280800 2.806180
1005.523800 0.682495
1005.766700 2.783904
1006.009700 -0.076577
1006.252700 -3.163161
1006.495700 -0.392291
1006.738700 -2.856124
1006.981700 -0.020766
1007.224700 -0.227601
1007.467700 -1.202253
1007.710700 0.207540
1007.953800 0.265314
1008.196800 2.736397
1008.439800 -0.178301
1008.682900 -0.410469
1008.925900 -0.071776
1009.169000 -0.285152
1009.412100 -2.880814
1009.655100 -1.086569
1009.898200 -0.001352
1010.141300 -0.647296
1010.384400 -0.428858
1010.627500 0.379967
1010.870600 0.309120
1011.113700 3.086360
1011.356800 2.820201
1011.600000 -1.251545
1011.843100 0.116281
1012.086300 -1.623249
1012.329400 0.504291
1012.572600 -3.205204
1012.815700 0.380783
1013.058900 -2.579784
1013.302100 -0.060941
1013.545200 1.638727
1013.788400 -0.061154
1014.031600 -2.437751
1014.274800 0.148839
1014.518000 -0.048887
1014.761300 0.219929
1015.004500 -2.722634
1015.247700 -0.413207
1015.490900 -3.292920
1015.734200 0.915517
1015.977400 0.222362
1016.220700 -3.248709
1016.464000 1.229840
1016.707200 -0.434981
1016.950500 2.378398
1017.193800 -0.208659
1017.437100 1.240074
1017.680400 2.985426
1017.923700 0.174487
1018.167000 0.062344
1018.410300 -0.466126
1018.653600 -0.073405
1018.896900 0.034383
1019.140300 -0.276445
1019.383600 -0.409860
1019.627000 2.950851
1019.870300 0.141100
1020.113700 3.183555
1020.357100 -0.774478
1020.600400 -0.276957
1020.843800 3.090258
1021.087200 0.136680
1021.330600 -2.705008
1021.574000 -0.079673
1021.817400 0.000000
1022.060800 -3.048830
1022.304200 -1.623249
1022.547700 2.902003
1022.791100 -0.783461
1023.034500 2.812913
