# Wavelength	Absorbance
197.780200 -0.012458
197.984200 0.244248
198.188200 -0.184067
198.392200 -0.158588
198.596300 0.411761
198.800300 2.318063
199.004400 -0.418105
199.208500 0.222835
199.412600 2.776701
199.616800 -0.332765
199.820900 -0.333958
200.025100 0.194900
200.229200 -0.566707
200.433400 3.008600
200.637600 1.489802
200.841800 -0.192119
201.046100 3.008600
201.250300 0.389886
201.454600 3.220892
201.658900 3.051153
201.863100 0.471010
202.067400 0.982271
202.271800 -0.212224
202.476100 -0.182655
202.680500 0.183917
202.884800 1.725185
203.089200 0.049202
203.293600 -0.221067
203.498000 -0.279562
203.702400 2.336460
203.906900 1.959041
204.111300 0.000000
204.315800 -0.237788
204.520300 3.062958
204.724800 -0.598963
204.929300 -0.444534
205.133800 0.137603
205.338400 1.564929
205.543000 0.647687
205.747500 -0.000902
205.952100 2.791691
206.156700 0.484400
206.361400 0.000000
206.566000 -0.387667
206.770600 0.120928
206.975300 -0.700730
207.180000 -1.982271
207.384700 0.318198
207.589400 -2.008600
207.794100 -0.706667
207.998900 -0.527313
208.203600 0.043723
208.408400 0.370929
208.613200 0.067385
208.818000 -0.273833
209.022800 0.406373
209.227600 0.083805
209.432500 2.907949
209.637300 -0.462821
209.842200 2.294466
210.047100 -0.177240
210.252000 -0.760503
210.456900 -0.029251
210.661800 0.589995
210.866800 0.946466
211.071800 0.421440
211.276700 0.080579
211.481700 1.145332
211.686700 -0.635652
211.891800 2.480007
212.096800 0.411464
212.301800 2.890421
212.506900 0.138269
212.712000 2.965672
212.917100 0.793373
213.122200 -0.189091
213.327300 0.149378
213.532500 -2.935507
213.737600 -0.027832
213.942800 1.447158
214.148000 -0.304063
214.353200 -2.318063
214.558400 -0.074431
214.763600 1.106927
214.968900 2.896526
215.174100 0.100166
215.379400 -2.784617
215.584700 2.846955
215.790000 -0.017415
215.995300 -0.115306
216.200700 0.716275
216.406000 0.436620
216.611400 -0.425548
216.816800 0.114453
217.022200 -0.115220
217.227600 0.161564
217.433000 0.758407
217.638400 -0.289385
217.843900 -0.547270
218.049400 0.000000
218.254800 3.275081
218.460300 3.008600
218.665900 0.261878
218.871400 3.234517
219.076900 -0.225299
219.282500 2.960946
219.488100 0.403822
219.693600 2.783904
219.899200 0.263320
220.104900 3.055378
220.310500 2.158362
220.516100 0.000000
220.721800 2.872156
220.927500 0.125185
221.133200 0.102662
221.338900 -0.011811
221.544600 0.203503
221.750300 1.405403
221.956100 0.108071
222.161800 2.338456
222.367600 -0.267415
222.573400 -0.395565
222.779200 -2.736397
222.985000 -3.221153
223.190900 0.232833
223.396700 2.621176
223.602600 -0.010995
223.808500 2.736397
224.014400 -0.012589
224.220300 -0.173058
224.426200 -0.121402
224.632200 2.727541
224.838100 -0.113900
225.044100 2.653213
225.250100 2.550228
225.456100 -0.402166
225.662100 2.632457
225.868100 -0.877217
226.074200 2.632457
226.280200 0.000000
226.486300 0.224741
226.692400 -2.359835
226.898500 0.302063
227.104600 -0.768867
227.310700 0.176427
227.516900 -0.170537
227.723000 -1.183096
227.929200 1.661788
228.135400 -0.198185
228.341600 0.071986
228.547800 -0.101824
228.754100 0.360438
228.960300 -0.329675
229.166600 0.000000
229.372900 0.264496
229.579100 2.683047
229.785500 0.431855
229.991800 0.845098
230.198100 0.773660
230.404500 0.708515
230.610800 -0.026709
230.817200 -1.591065
231.023600 0.457452
231.230000 2.683047
231.436400 0.488587
231.642900 2.718502
231.849300 -0.143817
232.055800 2.008600
232.262300 0.480782
232.468800 -0.591187
232.675300 -0.067809
232.881800 2.599883
233.088400 -0.302200
233.294900 -0.444968
233.501500 2.902003
233.708100 -2.853698
233.914700 2.710963
234.121300 -2.975891
234.327900 -0.564139
234.534600 -0.440398
234.741300 0.737769
234.947900 2.736397
235.154600 0.358925
235.361300 3.122544
235.568000 -0.079388
235.774800 0.087570
235.981500 -0.251288
236.188300 -2.985426
236.395100 0.263169
236.601800 -3.221153
236.808700 1.052461
237.015500 0.225025
237.222300 -0.176902
237.429200 0.905454
237.636000 -0.297871
237.842900 -1.304685
238.049800 -0.308045
238.256700 -0.455353
238.463600 -0.030788
238.670600 0.420583
238.877500 0.334597
239.084500 -3.122544
239.291500 3.226342
239.498500 2.245513
239.705500 0.210483
239.912500 -1.256305
240.119500 -1.275946
240.326600 2.190332
240.533700 -2.924796
240.740700 0.261341
240.947800 -0.311125
241.154900 3.059185
241.362100 0.122800
241.569200 -0.352969
241.776400 0.990530
241.983500 -0.043466
242.190700 0.151448
242.397900 -1.255273
242.605100 2.537819
242.812400 0.154742
243.019600 0.080027
243.226900 0.392054
243.434100 2.913284
243.641400 0.376561
243.848700 3.012837
244.056000 -2.599883
244.263400 0.078025
244.470700 0.924423
244.678100 0.060411
244.885400 2.945469
245.092800 -0.019423
245.300200 0.268030
245.507600 3.330008
245.715100 0.351581
245.922500 0.147603
246.130000 1.230449
246.337500 0.305033
246.544900 2.396199
246.752400 1.272954
246.960000 3.165244
247.167500 0.551672
247.375000 -2.813581
247.582600 0.184982
247.790200 -1.193919
247.997800 -0.237447
248.205400 0.296784
248.413000 -0.395371
248.620600 0.044494
248.828300 0.470872
249.035900 -0.173792
249.243600 0.179958
249.451300 1.064912
249.659000 3.192567
249.866700 3.168203
250.074500 0.372644
250.282200 0.390150
250.490000 3.021603
250.697800 -0.200320
250.905600 2.480007
251.113400 2.929930
251.321200 -0.467995
251.529000 -0.486944
251.736900 0.424720
251.944700 1.178074
252.152600 0.490248
252.360500 2.710117
252.568400 -0.384517
252.776300 0.619789
252.984300 2.902003
253.192200 2.985426
253.400200 -0.201400
253.608200 0.049655
253.816200 0.203214
254.024200 -0.263665
254.232200 -0.700637
254.440200 0.000000
254.648300 -0.373637
254.856400 2.701568
255.064400 0.343005
255.272500 -0.189749
255.480600 3.104828
255.688800 -3.353147
255.896900 3.030195
256.105100 3.284882
256.313200 2.752816
256.521400 -0.377022
256.729600 -0.289205
256.937800 0.773494
257.146000 -0.220541
257.354300 0.000000
257.562500 0.173520
257.770800 -2.799341
257.979100 1.186746
258.187400 2.833784
258.395700 0.157989
258.604000 0.207259
258.812400 -0.395842
259.020700 0.593155
259.229100 3.093772
259.437500 2.975891
259.645900 -0.049591
259.854300 2.878522
260.062700 0.855968
260.271100 0.261341
260.479600 0.112178
260.688100 -0.653345
260.896500 3.252853
261.105000 -0.433841
261.313500 2.621176
261.522100 -0.000313
261.730600 0.010453
261.939200 -0.244393
262.147700 0.288327
262.356300 -0.502898
262.564900 0.218495
262.773500 1.316347
262.982200 0.203186
263.190800 -2.089905
263.399500 -0.014327
263.608100 -0.318155
263.816800 0.569246
264.025500 -0.559969
264.234200 2.158362
264.442900 2.053078
264.651700 0.664635
264.860400 2.662758
265.069200 3.051153
265.278000 2.990339
265.486800 2.975891
265.695600 -0.864671
265.904400 0.037038
266.113300 2.599883
266.322100 0.117373
266.531000 -0.305417
266.739900 -0.641041
266.948800 3.125806
267.157700 -0.223770
267.366600 3.055378
267.575500 0.709435
267.784500 2.550228
267.993500 -0.439812
268.202400 0.068265
268.411400 0.236985
268.620500 2.761176
268.829500 -0.416872
269.038500 0.215367
269.247600 -0.169154
269.456600 -0.869922
269.665700 -0.010219
269.874800 2.907411
270.083900 0.161151
270.293100 0.000000
270.502200 1.026028
270.711400 2.127105
270.920500 -0.328481
271.129700 0.552457
271.338900 0.224631
271.548100 -0.338635
271.757300 1.439130
271.966600 2.890421
272.175800 3.277609
272.385100 0.230033
272.594400 0.420583
272.803700 -0.140663
273.013000 -0.103206
273.222300 2.994757
273.431600 0.805409
273.641000 1.954511
273.850400 -0.112013
274.059700 -0.176583
274.269100 0.659287
274.478500 1.359787
274.688000 -0.135760
274.897400 -0.109604
275.106900 1.591065
275.316300 -0.143279
275.525800 3.067071
275.735300 -2.008600
275.944800 0.229275
276.154300 0.062875
276.363900 -0.109706
276.573400 0.138538
276.783000 0.875767
276.992600 0.449015
277.202200 3.047275
277.411800 2.587711
277.621400 0.262158
277.831000 3.118595
278.040700 0.653790
278.250300 0.911716
278.460000 0.032960
278.669700 2.980458
278.879400 0.163456
279.089100 -0.221849
279.298900 2.929930
279.508600 0.450528
279.718400 3.272770
279.928100 -2.752816
280.137900 0.640185
280.347700 -0.414818
280.557600 2.960946
280.767400 0.034696
280.977200 -0.199358
281.187100 0.000000
281.397000 3.089905
281.606900 -2.902547
281.816800 0.432957
282.026700 0.349335
282.236600 -0.095597
282.446600 2.924279
282.656500 -3.319314
282.866500 -0.143817
283.076500 0.329856
283.286500 0.236756
283.496500 0.035403
283.706500 -0.028096
283.916600 2.866287
284.126600 -2.176918
284.336700 -0.019285
284.546800 2.587711
284.756900 -0.154984
284.967000 2.896526
285.177100 0.420755
285.387300 0.000000
285.597400 -0.181624
285.807600 -1.155517
286.017800 0.541429
286.228000 -2.269513
286.438200 0.186007
286.648400 0.297064
286.858700 0.171168
287.068900 2.760422
287.279200 -0.157366
287.489500 -0.509823
287.699800 -0.155955
287.910100 -0.001038
288.120400 0.081133
288.330800 -0.620625
288.541100 0.525585
288.751500 2.217484
288.961900 -0.510084
289.172300 0.000000
289.382700 3.074816
289.593100 0.754921
289.803500 -2.890980
290.014000 0.710945
290.224500 0.156638
290.434900 -2.966142
290.645400 -0.162057
290.855900 -0.237767
291.066500 -0.106968
291.277000 -0.349829
291.487500 -0.353905
291.698100 -0.261962
291.908700 -0.646970
292.119300 3.059185
292.329900 0.547425
292.540500 0.064653
292.751100 2.956168
292.961800 -3.115611
293.172400 0.418617
293.383100 -1.591065
293.593800 0.634921
293.804500 -0.395435
294.015200 0.261127
294.226000 -2.878522
294.436700 2.799341
294.647500 0.957802
294.858200 0.290199
295.069000 -0.250618
295.279800 -0.456450
295.490600 -2.008600
295.701500 3.059185
295.912300 0.168972
296.123200 0.672540
296.334000 -0.430196
296.544900 0.918869
296.755800 3.220892
296.966700 -0.370634
297.177700 0.676448
297.388600 -0.060193
297.599500 2.269513
297.810500 3.090258
298.021500 1.558155
298.232500 -0.054411
298.443500 -0.579317
298.654500 3.177536
298.865600 3.125806
299.076600 -0.576443
299.287700 -2.890980
299.498800 0.431747
299.709900 0.011023
299.921000 0.111974
300.132100 0.016604
300.343200 0.141078
300.554400 0.147163
300.765500 -0.150623
300.976700 -2.975891
301.187900 0.158526
301.399100 -0.348685
301.610300 -0.057306
301.821500 0.408570
302.032800 0.529299
302.244100 3.017451
302.455300 0.112178
302.666600 0.419881
302.877900 0.702596
303.089200 -0.798008
303.300600 0.811843
303.511900 0.420583
303.723300 2.924279
303.934600 0.615282
304.146000 -2.249024
304.357400 2.432969
304.568800 0.062338
304.780300 0.055885
304.991700 -0.316786
305.203100 -0.814874
305.414600 0.119201
305.626100 2.294466
305.837600 0.225233
306.049100 0.252228
306.260600 0.055956
306.472200 0.087150
306.683700 0.161343
306.895300 -0.518934
307.106900 0.378026
307.318400 -0.012646
307.530100 0.380627
307.741700 -0.060107
307.953300 1.554085
308.165000 0.000000
308.376600 0.451709
308.588300 3.242293
308.800000 0.459039
309.011700 0.135927
309.223400 3.125806
309.435100 -0.672294
309.646900 2.840106
309.858600 0.241415
310.070400 -0.207615
310.282200 -0.912677
310.494000 1.378645
310.705800 3.168203
310.917600 -0.016058
311.129500 2.840106
311.341300 0.224932
311.553200 0.516712
311.765100 0.091974
311.977000 3.142702
312.188900 3.122544
312.400800 0.164312
312.612700 -0.109706
312.824700 0.270019
313.036600 0.050400
313.248600 3.332034
313.460600 0.335865
313.672600 0.522264
313.884600 1.077760
314.096700 0.240048
314.308700 3.475962
314.520800 3.104828
314.732800 0.511797
314.944900 0.115528
315.157000 0.719407
315.369200 0.329969
315.581300 0.649816
315.793400 -0.533461
316.005600 0.163009
316.217700 1.078298
316.429900 0.388771
316.642100 0.524750
316.854300 0.240074
317.066600 3.463445
317.278800 1.408539
317.491100 3.192289
317.703300 0.736376
317.915600 0.360939
318.127900 0.296233
318.340200 -0.089070
318.552500 3.255273
318.764900 0.173107
318.977200 0.837709
319.189600 0.105399
319.401900 0.561036
319.614300 3.245019
319.826700 0.528588
320.039200 3.358886
320.251600 1.294812
320.464000 0.599863
320.676500 0.243274
320.889000 2.465383
321.101400 0.424093
321.313900 0.262993
321.526500 1.118860
321.739000 1.107064
321.951500 0.162422
322.164100 3.132580
322.376600 0.223154
322.589200 3.362859
322.801800 0.191364
323.014400 1.352372
323.227000 0.186379
323.439700 3.437433
323.652300 0.440692
323.865000 1.157264
324.077700 0.348057
324.290400 3.310268
324.503100 1.369979
324.715800 0.755702
324.928500 0.204544
325.141200 1.066111
325.354000 0.570507
325.566800 0.498895
325.779600 3.531990
325.992400 3.314710
326.205200 0.992348
326.418000 3.474362
326.630800 3.581495
326.843700 3.659250
327.056600 0.983455
327.269400 0.431547
327.482300 3.531990
327.695200 3.385964
327.908200 0.298344
328.121100 0.406655
328.334000 0.618618
328.547000 0.852071
328.760000 1.007156
328.973000 3.578983
329.186000 0.736942
329.399000 0.259242
329.612000 2.460397
329.825100 3.485153
330.038100 0.693801
330.251200 1.022643
330.464300 3.658298
330.677400 0.992031
330.890500 0.783483
331.103600 0.790072
331.316700 3.641970
331.529900 0.692156
331.743100 0.743145
331.956200 0.820606
332.169400 0.601945
332.382600 0.278087
332.595900 3.740600
332.809100 0.574166
333.022300 0.952154
333.235600 0.452769
333.448900 3.655235
333.662200 3.609381
333.875500 0.983284
334.088800 3.518251
334.302100 3.740521
334.515400 0.431452
334.728800 0.842530
334.942200 1.027073
335.155500 3.580241
335.368900 1.093163
335.582300 3.640879
335.795800 0.940571
336.009200 1.653918
336.222700 0.491596
336.436100 0.769090
336.649600 3.795949
336.863100 0.637036
337.076600 3.787035
337.290100 0.536997
337.503600 0.600584
337.717200 3.759290
337.930700 3.722716
338.144300 0.618771
338.357900 0.903473
338.571500 0.676652
338.785100 3.703205
338.998700 3.739731
339.212400 0.901498
339.426000 0.562617
339.639700 1.067383
339.853300 0.455113
340.067000 1.471875
340.280700 0.952013
340.494500 3.790074
340.708200 0.609140
340.921900 0.850683
341.135700 0.685069
341.349500 0.785306
341.563300 0.710313
341.777100 3.818094
341.990900 0.990432
342.204700 0.859874
342.418500 1.651748
342.632400 1.255273
342.846300 1.569651
343.060100 0.506349
343.274000 1.329492
343.487900 0.905606
343.701900 0.904205
343.915800 3.793022
344.129700 0.779490
344.343700 0.535217
344.557700 0.792707
344.771700 1.108126
344.985700 1.271049
345.199700 0.740363
345.413700 1.510974
345.627700 0.770073
345.841800 0.791340
346.055900 2.598851
346.269900 1.344898
346.484000 1.255163
346.698100 0.849795
346.912300 0.509499
347.126400 1.508072
347.340600 3.899164
347.554700 1.130447
347.768900 3.886321
347.983100 1.039511
348.197300 0.631087
348.411500 0.700172
348.625700 0.556279
348.840000 1.348387
349.054200 1.112504
349.268500 1.112156
349.482800 3.888011
349.697100 1.152257
349.911400 1.064251
350.125700 0.637570
350.340000 3.937869
350.554400 0.836633
350.768700 1.447424
350.983100 0.993024
351.197500 1.104628
351.411900 0.716328
351.626300 3.954918
351.840700 3.963032
352.055200 3.931966
352.269600 0.691361
352.484100 3.950851
352.698600 0.994876
352.913100 0.911430
353.127600 3.993348
353.342100 1.939666
353.556600 1.038545
353.771200 4.007534
353.985800 0.842240
354.200300 3.930898
354.414900 0.782436
354.629500 3.907143
354.844100 3.994273
355.058800 3.971879
355.273400 3.971369
355.488100 1.075324
355.702700 1.125160
355.917400 3.938920
356.132100 0.571014
356.346800 3.982000
356.561500 1.190783
356.776300 0.706218
356.991000 1.068384
357.205800 1.828901
357.420600 3.988202
357.635300 1.036084
357.850100 1.116071
358.065000 1.983334
358.279800 0.812051
358.494600 0.873279
358.709500 0.999621
358.924300 3.975799
359.139200 1.172928
359.354100 3.988202
359.569000 0.994276
359.783900 3.987264
359.998900 0.926864
360.213800 4.019947
360.428800 1.259036
360.643800 0.704659
360.858700 1.563006
361.073700 1.303652
361.288800 1.188444
361.503800 1.090944
361.718800 3.995196
361.933900 1.485577
362.148900 1.618926
362.364000 1.080899
362.579100 0.894348
362.794200 0.675015
363.009300 4.072250
363.224500 1.311875
363.439600 0.761118
363.654800 1.511243
363.869900 0.647411
364.085100 4.019947
364.300300 0.674022
364.515500 0.993723
364.730800 0.968724
364.946000 1.354040
365.161200 0.729011
365.376500 4.086360
365.591800 4.054805
365.807100 2.429338
366.022400 1.017430
366.237700 1.111880
366.453000 1.543374
366.668400 1.691435
366.883700 1.161087
367.099100 4.077622
367.314500 0.984565
367.529900 2.520467
367.745300 0.992134
367.960700 4.089375
368.176100 1.202092
368.391600 1.038517
368.607000 1.306935
368.822500 1.561672
369.038000 4.150173
369.253500 4.100405
369.469000 1.690752
369.684500 2.881702
369.900100 1.165361
370.115600 4.067926
370.331200 1.574101
370.546800 1.137867
370.762400 1.022701
370.978000 1.323372
371.193600 1.048972
371.409200 0.981783
371.624900 0.950658
371.840500 1.214987
372.056200 1.107545
372.271900 1.222606
372.487600 1.224015
372.703300 4.129915
372.919000 1.596531
373.134800 1.090396
373.350500 4.133635
373.566300 1.554754
373.782000 1.175282
373.997800 1.046955
374.213600 2.259452
374.429400 0.980939
374.645300 1.030265
374.861100 1.353736
375.077000 0.877815
375.292800 4.182329
375.508700 1.110838
375.724600 0.932748
375.940500 1.419064
376.156400 2.446304
376.372400 1.170854
376.588300 1.139486
376.804300 1.769337
377.020300 4.247581
377.236200 2.349841
377.452200 1.256558
377.668200 0.969364
377.884300 1.394070
378.100300 1.362286
378.316400 1.093222
378.532400 2.181123
378.748500 1.306159
378.964600 1.513112
379.180700 1.875424
379.396800 2.228283
379.612900 1.754115
379.829100 4.308394
380.045200 2.507609
380.261400 1.563175
380.477600 1.247571
380.693800 1.136287
380.910000 4.341138
381.126200 1.517797
381.342400 1.535342
381.558700 4.275910
381.774900 1.503990
381.991200 1.425796
382.207500 2.224762
382.423800 1.353627
382.640100 1.365662
382.856400 1.328077
383.072800 1.082209
383.289100 1.337784
383.505500 1.082362
383.721900 1.496744
383.938200 3.084199
384.154600 1.491401
384.371100 4.337779
384.587500 1.825045
384.803900 1.186190
385.020400 1.261387
385.236800 1.453785
385.453300 4.374308
385.669800 2.749637
385.886300 1.697044
386.102800 1.546539
386.319400 1.127912
386.535900 1.156335
386.752500 0.964353
386.969000 1.421712
387.185600 1.762241
387.402200 2.040374
387.618800 1.068134
387.835500 4.396356
388.052100 1.618380
388.268700 4.405654
388.485400 1.074788
388.702100 2.256544
388.918800 1.780168
389.135500 1.357711
389.352200 1.876636
389.568900 1.784542
389.785600 1.520388
390.002400 1.283792
390.219200 1.150915
390.435900 4.410828
390.652700 4.398738
390.869500 1.560777
391.086300 1.354685
391.303200 1.244143
391.520000 1.187017
391.736900 4.423459
391.953700 1.152216
392.170600 1.234977
392.387500 1.173320
392.604400 1.136590
392.821300 1.244897
393.038300 1.107571
393.255200 1.185440
393.472200 1.313086
393.689100 1.108534
393.906100 1.072984
394.123100 1.038159
394.340100 1.171741
394.557200 1.040418
394.774200 1.315112
394.991200 1.077018
395.208300 0.992439
395.425400 0.927233
395.642500 1.064455
395.859600 1.049574
396.076700 0.914529
396.293800 0.929945
396.510900 0.935059
396.728100 0.919077
396.945300 1.008919
397.162400 0.975841
397.379600 0.954026
397.596800 0.855738
397.814000 1.068835
398.031300 0.855780
398.248500 0.866166
398.465800 0.912520
398.683000 0.914415
398.900300 0.917928
399.117600 0.941286
399.334900 0.832893
399.552200 0.963250
399.769600 0.760203
399.986900 0.823866
400.204300 0.737841
400.421600 0.866798
400.639000 0.821472
400.856400 0.783152
401.073800 0.773756
401.291200 0.886268
401.508700 0.705949
401.726100 0.840379
401.943600 0.682983
402.161000 0.771786
402.378500 0.685178
402.596000 0.826965
402.813500 0.702669
403.031000 0.790806
403.248600 0.761823
403.466100 0.716873
403.683700 0.725951
403.901300 0.803659
404.118900 0.657547
404.336500 0.713044
404.554100 0.686757
404.771700 0.692049
404.989300 0.641780
405.207000 0.617063
405.424600 0.687323
405.642300 0.630249
405.860000 0.630373
406.077700 0.690953
406.295400 0.718007
406.513100 0.698340
406.730900 0.601347
406.948600 0.577025
407.166400 0.558299
407.384200 0.592323
407.602000 0.586437
407.819800 0.570859
408.037600 0.693321
408.255400 0.568238
408.473300 0.596921
408.691100 0.547665
408.909000 0.605204
409.126900 0.504020
409.344800 0.542433
409.562700 0.662221
409.780600 0.575045
409.998500 0.518400
410.216500 0.544447
410.434400 0.538940
410.652400 0.582885
410.870400 0.540357
411.088400 0.540495
411.306400 0.514765
411.524400 0.531434
411.742400 0.497370
411.960500 0.511356
412.178500 0.529852
412.396600 0.425261
412.614700 0.449079
412.832800 0.494848
413.050900 0.553451
413.269000 0.483381
413.487100 0.533945
413.705300 0.488383
413.923400 0.515638
414.141600 0.462804
414.359800 0.476906
414.578000 0.461578
414.796200 0.477307
415.014400 0.482422
415.232600 0.492684
415.450900 0.491326
415.669200 0.469804
415.887400 0.439122
416.105700 0.428677
416.324000 0.447144
416.542300 0.457057
416.760600 0.465450
416.979000 0.422097
417.197300 0.398620
417.415700 0.437216
417.634100 0.408932
417.852400 0.391967
418.070800 0.412848
418.289300 0.470218
418.507700 0.425258
418.726100 0.428334
418.944600 0.371553
419.163000 0.366472
419.381500 0.318596
419.600000 0.382891
419.818500 0.382940
420.037000 0.413448
420.255500 0.408446
420.474100 0.425071
420.692600 0.416502
420.911200 0.343483
421.129800 0.398048
421.348300 0.336944
421.566900 0.401512
421.785600 0.420829
422.004200 0.457826
422.222800 0.385165
422.441500 0.407463
422.660100 0.341797
422.878800 0.363821
423.097500 0.350247
423.316200 0.347251
423.534900 0.350008
423.753600 0.358598
423.972400 0.319525
424.191100 0.375661
424.409900 0.356406
424.628700 0.351937
424.847500 0.313794
425.066300 0.333904
425.285100 0.317044
425.503900 0.318614
425.722800 0.343619
425.941600 0.353726
426.160500 0.294963
426.379300 0.314347
426.598200 0.320071
426.817100 0.297833
427.036100 0.351599
427.255000 0.335210
427.473900 0.330171
427.692900 0.303707
427.911800 0.356083
428.130800 0.316201
428.349800 0.292183
428.568800 0.334373
428.787800 0.326397
429.006800 0.336383
429.225900 0.290094
429.444900 0.326575
429.664000 0.312656
429.883100 0.352694
430.102200 0.298315
430.321300 0.347070
430.540400 0.333495
430.759500 0.280803
430.978700 0.316213
431.197800 0.308148
431.417000 0.270803
431.636200 0.290029
431.855300 0.295671
432.074500 0.261565
432.293800 0.318371
432.513000 0.316239
432.732200 0.296771
432.951500 0.339597
433.170700 0.315834
433.390000 0.276591
433.609300 0.331766
433.828600 0.299049
434.047900 0.339080
434.267300 0.357136
434.486600 0.313097
434.705900 0.312811
434.925300 0.323191
435.144700 0.283624
435.364100 0.316411
435.583500 0.297107
435.802900 0.293165
436.022300 0.298859
436.241800 0.288896
436.461200 0.321887
436.680700 0.343485
436.900100 0.320751
437.119600 0.296668
437.339100 0.276220
437.558600 0.298766
437.778200 0.317076
437.997700 0.294367
438.217300 0.315871
438.436800 0.305927
438.656400 0.339510
438.876000 0.288589
439.095600 0.305732
439.315200 0.289820
439.534800 0.297675
439.754500 0.295919
439.974100 0.289624
440.193800 0.305420
440.413500 0.345479
440.633100 0.310440
440.852800 0.314683
441.072500 0.340649
441.292300 0.322363
441.512000 0.293892
441.731800 0.337175
441.951500 0.325888
442.171300 0.321262
442.391100 0.334743
442.610900 0.307215
442.830700 0.331416
443.050500 0.329776
443.270300 0.316700
443.490200 0.303618
443.710100 0.309411
443.929900 0.315885
444.149800 0.357000
444.369700 0.328169
444.589600 0.319967
444.809500 0.307952
445.029500 0.360758
445.249400 0.341396
445.469400 0.332078
445.689400 0.361956
445.909300 0.334314
446.129300 0.378078
446.349300 0.357855
446.569400 0.395376
446.789400 0.351768
447.009400 0.356675
447.229500 0.323534
447.449600 0.366192
447.669600 0.346576
447.889700 0.357915
448.109800 0.305832
448.330000 0.350777
448.550100 0.365362
448.770200 0.396785
448.990400 0.360608
449.210600 0.364926
449.430700 0.334206
449.650900 0.385347
449.871100 0.347845
450.091400 0.369053
450.311600 0.393244
450.531800 0.398157
450.752100 0.378316
450.972400 0.327067
451.192600 0.385849
451.412900 0.411836
451.633200 0.388637
451.853500 0.374494
452.073900 0.375154
452.294200 0.367544
452.514600 0.354277
452.734900 0.381902
452.955300 0.354421
453.175700 0.373175
453.396100 0.382389
453.616500 0.374039
453.836900 0.416359
454.057400 0.391713
454.277800 0.408898
454.498300 0.405682
454.718800 0.381911
454.939300 0.420003
455.159700 0.409420
455.380300 0.412488
455.600800 0.435359
455.821300 0.391937
456.041900 0.442447
456.262400 0.448965
456.483000 0.429008
456.703600 0.400353
456.924200 0.415276
457.144800 0.463635
457.365400 0.433702
457.586000 0.433255
457.806700 0.435432
458.027400 0.483555
458.248000 0.422012
458.468700 0.475930
458.689400 0.412964
458.910100 0.468773
459.130800 0.481007
459.351600 0.449328
459.572300 0.468490
459.793100 0.464705
460.013800 0.449381
460.234600 0.531144
460.455400 0.527070
460.676200 0.473824
460.897000 0.505048
461.117800 0.451802
461.338700 0.487540
461.559500 0.493673
461.780400 0.505411
462.001300 0.472530
462.222200 0.543862
462.443100 0.539528
462.664000 0.534164
462.884900 0.500850
463.105900 0.538996
463.326800 0.529298
463.547800 0.562411
463.768700 0.527425
463.989700 0.544571
464.210700 0.544212
464.431700 0.518735
464.652800 0.544948
464.873800 0.580689
465.094800 0.579714
465.315900 0.614700
465.537000 0.536210
465.758100 0.579837
465.979200 0.529691
466.200300 0.569670
466.421400 0.554724
466.642500 0.575359
466.863700 0.603749
467.084800 0.614611
467.306000 0.591673
467.527200 0.608630
467.748400 0.630949
467.969600 0.621347
468.190800 0.619451
468.412000 0.633370
468.633300 0.570361
468.854500 0.636624
469.075800 0.564787
469.297000 0.676509
469.518300 0.635173
469.739600 0.596142
469.961000 0.619055
470.182300 0.664093
470.403600 0.592049
470.625000 0.646349
470.846300 0.712180
471.067700 0.592275
471.289100 0.698608
471.510500 0.608974
471.731900 0.638957
471.953300 0.679679
472.174800 0.650228
472.396200 0.699390
472.617700 0.719691
472.839100 0.698285
473.060600 0.682850
473.282100 0.715331
473.503600 0.690907
473.725100 0.736225
473.946700 0.672709
474.168200 0.632208
474.389800 0.668860
474.611300 0.721190
474.832900 0.672514
475.054500 0.703771
475.276100 0.799469
475.497700 0.683756
475.719300 0.705824
475.941000 0.757630
476.162600 0.766396
476.384300 0.804284
476.606000 0.707363
476.827700 0.704690
477.049400 0.832902
477.271100 0.850142
477.492800 0.738307
477.714500 0.851115
477.936300 0.814269
478.158000 0.835643
478.379800 0.832813
478.601600 0.797343
478.823400 0.895283
479.045200 0.806440
479.267000 0.845197
479.488800 0.783901
479.710700 0.917618
479.932500 0.776433
480.154400 0.822535
480.376300 0.911979
480.598200 0.883831
480.820100 0.809043
481.042000 0.853065
481.263900 0.931114
481.485900 0.864766
481.707800 0.935484
481.929800 0.931638
482.151700 0.880374
482.373700 0.883860
482.595700 0.924480
482.817700 0.909003
483.039800 0.927238
483.261800 0.929167
483.483800 0.889909
483.705900 0.978259
483.928000 0.877003
484.150100 0.947501
484.372100 0.936754
484.594300 0.924759
484.816400 1.047906
485.038500 0.959475
485.260600 0.872168
485.482800 0.987764
485.705000 0.984257
485.927100 0.964016
486.149300 1.017273
486.371500 1.026757
486.593700 0.987704
486.816000 1.010456
487.038200 1.005265
487.260500 0.970478
487.482700 0.953951
487.705000 0.951637
487.927300 0.987834
488.149600 1.053709
488.371900 1.124253
488.594200 1.007608
488.816500 1.044896
489.038900 1.087189
489.261200 1.072272
489.483600 0.966784
489.706000 1.051686
489.928400 0.955050
490.150800 1.002960
490.373200 0.966822
490.595600 0.980034
490.818000 1.032336
491.040500 1.077305
491.263000 1.035245
491.485400 0.966257
491.707900 1.106532
491.930400 1.171546
492.152900 1.256938
492.375500 1.194595
492.598000 1.054243
492.820500 1.093372
493.043100 1.076567
493.265700 1.131768
493.488200 1.065314
493.710800 1.072380
493.933400 1.021458
494.156100 1.309877
494.378700 1.087920
494.601300 1.257410
494.824000 1.116780
495.046600 1.098367
495.269300 1.121340
495.492000 1.186243
495.714700 1.087191
495.937400 1.155477
496.160100 1.143018
496.382900 1.064994
496.605600 1.291474
496.828400 1.261450
497.051100 1.227256
497.273900 1.194735
497.496700 1.040460
497.719500 1.110781
497.942300 1.073897
498.165200 1.167566
498.388000 1.102227
498.610900 1.004055
498.833700 1.013094
499.056600 1.333977
499.279500 0.998872
499.502400 1.131435
499.725300 1.105735
499.948200 1.232961
500.171200 1.156877
500.394100 1.250210
500.617100 1.040647
500.840000 0.997134
501.063000 1.161163
501.286000 1.294515
501.509000 1.062627
501.732000 1.286387
501.955100 1.216303
502.178100 1.231441
502.401200 1.090746
502.624200 1.218006
502.847300 1.137356
503.070400 1.131275
503.293500 1.175138
503.516600 1.162961
503.739700 1.286060
503.962800 1.082414
504.186000 1.160327
504.409200 1.317229
504.632300 0.993378
504.855500 1.275972
505.078700 1.129066
505.301900 1.084547
505.525100 1.047851
505.748300 1.165972
505.971600 1.403050
506.194800 1.238069
506.418100 1.057323
506.641400 1.490834
506.864700 1.054382
507.088000 1.051818
507.311300 1.347770
507.534600 1.175642
507.757900 1.105551
507.981300 1.204733
508.204600 1.217584
508.428000 1.355012
508.651400 1.023022
508.874800 1.203232
509.098200 1.203164
509.321600 1.120197
509.545000 1.201993
509.768500 1.129530
509.991900 1.205175
510.215400 1.216531
510.438800 1.054228
510.662300 1.153967
510.885800 1.216719
511.109300 1.278436
511.332900 1.104680
511.556400 1.097985
511.779900 1.227177
512.003500 1.089705
512.227000 1.352581
512.450600 1.250214
512.674200 1.142357
512.897800 1.270914
513.121400 1.232966
513.345100 1.058761
513.568700 0.994338
513.792300 1.233508
514.016000 1.276943
514.239700 1.085992
514.463400 0.978713
514.687100 1.212883
514.910800 1.027023
515.134500 0.954994
515.358200 1.095521
515.581900 1.071200
515.805700 1.030775
516.029500 1.226898
516.253200 1.210068
516.477000 1.064773
516.700800 1.054253
516.924600 1.004982
517.148500 1.076042
517.372300 1.096555
517.596100 1.378287
517.820000 1.037622
518.043900 1.104743
518.267700 1.105361
518.491600 0.961661
518.715500 1.085852
518.939500 1.096347
519.163400 1.090262
519.387300 0.983745
519.611300 1.021291
519.835200 1.037394
520.059200 1.069089
520.283200 1.168916
520.507200 0.948321
520.731200 1.022865
520.955200 1.069782
521.179200 0.952322
521.403300 1.060113
521.627300 0.869742
521.851400 1.008603
522.075500 1.339279
522.299600 1.126402
522.523700 1.190368
522.747800 1.024476
522.971900 1.148782
523.196000 0.996450
523.420200 1.227217
523.644300 0.976840
523.868500 1.040865
524.092700 0.965885
524.316900 1.205484
524.541100 0.996179
524.765300 1.099526
524.989500 0.995024
525.213800 0.953178
525.438000 0.892935
525.662300 1.180435
525.886500 0.996877
526.110800 0.926688
526.335100 0.884436
526.559400 0.997630
526.783700 1.097698
527.008100 1.056232
527.232400 0.948894
527.456800 1.051741
527.681100 0.804196
527.905500 0.964724
528.129900 0.877996
528.354300 1.007782
528.578700 1.058356
528.803100 0.990008
529.027600 0.887605
529.252000 0.977443
529.476500 0.870265
529.700900 0.849271
529.925400 0.895654
530.149900 0.998094
530.374400 0.778410
530.598900 0.848255
530.823400 0.956578
531.048000 0.942535
531.272500 0.810823
531.497100 0.803681
531.721700 0.707795
531.946200 0.850998
532.170800 0.712581
532.395400 0.839437
532.620000 0.816509
532.844700 0.870737
533.069300 0.770621
533.294000 0.913788
533.518600 0.876392
533.743300 0.851880
533.968000 0.831371
534.192700 0.832030
534.417400 0.807867
534.642100 0.831608
534.866800 0.681351
535.091600 0.752251
535.316300 0.750191
535.541100 0.803774
535.765900 0.708206
535.990700 0.763364
536.215500 0.714898
536.440300 0.759592
536.665100 0.771582
536.889900 0.732696
537.114800 0.669685
537.339600 0.679066
537.564500 0.700099
537.789400 0.726892
538.014300 0.709092
538.239200 0.725232
538.464100 0.669712
538.689000 0.703882
538.913900 0.667671
539.138900 0.661730
539.363800 0.685082
539.588800 0.595553
539.813800 0.661233
540.038800 0.652824
540.263800 0.651326
540.488800 0.566856
540.713800 0.629372
540.938900 0.631109
541.163900 0.564436
541.389000 0.549971
541.614000 0.569933
541.839100 0.642444
542.064200 0.587471
542.289300 0.618618
542.514400 0.676129
542.739600 0.583411
542.964700 0.590611
543.189900 0.586388
543.415000 0.507674
543.640200 0.574522
543.865400 0.594753
544.090600 0.490689
544.315800 0.529549
544.541000 0.554176
544.766200 0.603286
544.991500 0.562278
545.216700 0.513553
545.442000 0.570174
545.667300 0.490791
545.892600 0.523286
546.117900 0.529753
546.343200 0.528708
546.568500 0.496159
546.793800 0.522132
547.019200 0.516844
547.244500 0.538048
547.469900 0.480837
547.695300 0.536519
547.920600 0.507678
548.146000 0.478263
548.371500 0.470755
548.596900 0.503850
548.822300 0.457427
549.047800 0.487840
549.273200 0.443358
549.498700 0.442774
549.724200 0.433211
549.949600 0.458803
550.175100 0.384511
550.400700 0.461175
550.626200 0.402528
550.851700 0.451485
551.077300 0.403842
551.302800 0.446036
551.528400 0.382707
551.754000 0.378920
551.979600 0.402726
552.205200 0.383568
552.430800 0.395002
552.656400 0.376781
552.882000 0.410382
553.107700 0.395495
553.333300 0.427577
553.559000 0.359356
553.784700 0.347116
554.010400 0.371849
554.236100 0.366540
554.461800 0.383934
554.687500 0.376813
554.913200 0.367250
555.139000 0.333413
555.364800 0.326950
555.590500 0.334842
555.816300 0.304825
556.042100 0.357245
556.267900 0.311372
556.493700 0.326998
556.719500 0.303838
556.945400 0.320028
557.171200 0.322915
557.397100 0.301235
557.623000 0.312853
557.848800 0.310313
558.074700 0.298993
558.300600 0.322993
558.526600 0.291900
558.752500 0.312581
558.978400 0.247935
559.204400 0.291403
559.430300 0.278846
559.656300 0.271118
559.882300 0.256443
560.108300 0.287879
560.334300 0.257777
560.560300 0.251376
560.786300 0.254227
561.012400 0.275785
561.238400 0.282674
561.464500 0.251477
561.690500 0.246161
561.916600 0.264342
562.142700 0.222148
562.368800 0.244369
562.594900 0.261264
562.821100 0.243099
563.047200 0.248570
563.273300 0.231945
563.499500 0.221395
563.725700 0.252138
563.951900 0.241493
564.178100 0.197683
564.404300 0.224879
564.630500 0.208482
564.856700 0.235584
565.082900 0.190171
565.309200 0.202639
565.535500 0.200772
565.761700 0.165136
565.988000 0.213447
566.214300 0.179935
566.440600 0.177969
566.666900 0.167263
566.893200 0.190883
567.119600 0.179008
567.345900 0.186581
567.572300 0.181636
567.798700 0.190383
568.025000 0.153373
568.251400 0.181398
568.477800 0.179791
568.704300 0.157826
568.930700 0.177377
569.157100 0.184286
569.383600 0.171264
569.610000 0.163147
569.836500 0.165528
570.063000 0.141084
570.289500 0.180061
570.516000 0.144153
570.742500 0.144519
570.969000 0.159919
571.195600 0.162743
571.422100 0.149457
571.648700 0.151455
571.875200 0.150210
572.101800 0.153585
572.328400 0.142871
572.555000 0.142253
572.781600 0.157764
573.008200 0.140181
573.234900 0.152087
573.461500 0.141602
573.688200 0.144320
573.914900 0.149206
574.141500 0.139427
574.368200 0.134115
574.594900 0.127358
574.821600 0.127841
575.048400 0.133662
575.275100 0.120814
575.501800 0.135166
575.728600 0.123663
575.955400 0.112567
576.182100 0.121117
576.408900 0.116732
576.635700 0.114002
576.862600 0.125204
577.089400 0.119947
577.316200 0.114806
577.543100 0.118959
577.769900 0.108391
577.996800 0.107732
578.223700 0.107385
578.450500 0.100788
578.677400 0.115479
578.904400 0.096928
579.131300 0.098129
579.358200 0.100766
579.585100 0.094750
579.812100 0.089194
580.039100 0.093241
580.266000 0.092290
580.493000 0.094683
580.720000 0.091136
580.947000 0.090158
581.174100 0.095292
581.401100 0.090774
581.628100 0.084141
581.855200 0.081046
582.082200 0.086088
582.309300 0.089685
582.536400 0.079127
582.763500 0.069021
582.990600 0.073387
583.217700 0.075638
583.444900 0.075400
583.672000 0.078218
583.899100 0.066058
584.126300 0.068520
584.353500 0.073682
584.580700 0.067021
584.807900 0.070873
585.035100 0.082089
585.262300 0.076138
585.489500 0.079149
585.716700 0.072248
585.944000 0.068777
586.171300 0.064985
586.398500 0.060678
586.625800 0.065590
586.853100 0.063172
587.080400 0.068582
587.307700 0.063829
587.535000 0.061886
587.762400 0.048746
587.989700 0.047666
588.217100 0.059447
588.444500 0.066017
588.671800 0.055291
588.899200 0.055201
589.126600 0.054532
589.354000 0.065104
589.581500 0.058023
589.808900 0.047910
590.036300 0.056412
590.263800 0.055031
590.491300 0.048456
590.718700 0.042525
590.946200 0.054109
591.173700 0.056083
591.401200 0.058389
591.628800 0.058802
591.856300 0.051732
592.083800 0.041711
592.311400 0.045720
592.538900 0.044776
592.766500 0.056381
592.994100 0.054813
593.221700 0.051356
593.449300 0.046905
593.676900 0.054269
593.904600 0.054552
594.132200 0.046798
594.359800 0.054860
594.587500 0.040781
594.815200 0.039502
595.042900 0.042171
595.270500 0.040141
595.498300 0.035166
595.726000 0.048512
595.953700 0.044635
596.181400 0.038979
596.409200 0.040869
596.636900 0.052966
596.864700 0.043002
597.092500 0.052866
597.320300 0.041756
597.548100 0.049885
597.775900 0.052466
598.003700 0.048136
598.231500 0.056095
598.459400 0.038830
598.687200 0.059455
598.915100 0.055520
599.143000 0.050925
599.370900 0.049805
599.598800 0.049047
599.826700 0.036739
600.054600 0.046232
600.282500 0.045589
600.510500 0.037241
600.738400 0.036635
600.966400 0.031048
601.194400 0.026354
601.422300 0.020940
601.650300 0.021983
601.878300 0.027677
602.106400 0.037044
602.334400 0.036507
602.562400 0.034682
602.790500 0.038781
603.018500 0.033063
603.246600 0.033687
603.474700 0.030681
603.702800 0.034237
603.930900 0.033230
604.159000 0.040179
604.387100 0.039816
604.615200 0.029543
604.843400 0.022445
605.071500 0.027606
605.299700 0.034584
605.527900 0.024734
605.756100 0.028271
605.984300 0.025636
606.212500 0.020573
606.440700 0.014998
606.668900 0.009918
606.897200 0.017074
607.125400 0.019945
607.353700 0.017666
607.581900 0.023555
607.810200 0.018541
608.038500 0.020272
608.266800 0.011615
608.495100 0.019374
608.723500 0.006328
608.951800 0.030713
609.180100 0.009376
609.408500 0.010479
609.636900 0.021462
609.865300 0.017720
610.093600 0.024140
610.322000 0.019306
610.550500 0.019560
610.778900 0.018175
611.007300 0.019482
611.235700 0.022657
611.464200 0.030317
611.692700 0.024228
611.921100 0.023906
612.149600 0.034872
612.378100 0.024053
612.606600 0.022026
612.835100 0.023489
613.063700 0.016971
613.292200 0.013430
613.520800 0.026663
613.749300 0.013262
613.977900 0.013110
614.206500 0.028284
614.435100 0.023577
614.663700 0.025224
614.892300 0.014747
615.120900 0.008021
615.349500 0.023804
615.578200 0.022921
615.806800 0.020492
616.035500 0.016970
616.264200 0.012184
616.492900 0.018864
616.721600 0.009359
616.950300 0.016231
617.179000 0.011203
617.407700 0.004564
617.636500 0.004359
617.865200 0.013445
618.094000 0.011834
618.322700 0.001619
618.551500 -0.001621
618.780300 -0.006525
619.009100 0.015519
619.237900 0.025707
619.466700 0.017058
619.695600 0.020850
619.924400 0.016421
620.153300 0.015013
620.382100 0.017391
620.611000 0.008361
620.839900 0.003697
621.068800 0.013929
621.297700 0.011223
621.526600 0.006874
621.755600 -0.004830
621.984500 0.012346
622.213500 0.017451
622.442400 0.021009
622.671400 0.026115
622.900400 0.011716
623.129400 0.009035
623.358400 0.023730
623.587400 0.024674
623.816400 -0.001329
624.045400 0.000126
624.274500 0.015705
624.503500 -0.001451
624.732600 0.010991
624.961700 0.030137
625.190800 0.012037
625.419900 0.001697
625.649000 0.015649
625.878100 0.011286
626.107200 -0.007610
626.336400 -0.007084
626.565500 0.016050
626.794700 0.001817
627.023800 0.013331
627.253000 0.008186
627.482200 0.022594
627.711400 0.006837
627.940600 0.020084
628.169800 -0.003373
628.399100 -0.005749
628.628300 0.003164
628.857600 0.001365
629.086800 0.014782
629.316100 0.008218
629.545400 -0.003670
629.774700 0.032664
630.004000 0.017481
630.233300 0.008089
630.462600 0.006932
630.692000 0.014796
630.921300 0.005712
631.150700 0.023652
631.380100 0.006740
631.609400 0.026849
631.838800 0.035155
632.068200 0.002162
632.297600 0.009219
632.527100 -0.002118
632.756500 -0.007287
632.985900 0.012653
633.215400 0.008924
633.444800 0.001980
633.674300 0.011993
633.903800 0.008970
634.133300 -0.009449
634.362800 0.024360
634.592300 0.002739
634.821800 0.046699
635.051400 0.013093
635.280900 0.013260
635.510500 -0.025806
635.740000 0.000914
635.969600 0.015288
636.199200 0.009159
636.428800 0.013819
636.658400 0.012999
636.888000 -0.007603
637.117700 -0.007365
637.347300 0.021807
637.577000 0.008458
637.806600 0.000152
638.036300 0.037793
638.266000 0.000930
638.495700 0.030647
638.725400 0.045012
638.955100 -0.001373
639.184800 -0.005209
639.414500 0.014936
639.644300 0.019212
639.874000 -0.006281
640.103800 0.002163
640.333600 0.028227
640.563300 -0.011679
640.793100 -0.015346
641.022900 0.028059
641.252800 -0.001703
641.482600 0.031162
641.712400 -0.006163
641.942300 0.011292
642.172100 0.013550
642.402000 0.000469
642.631900 -0.006369
642.861700 0.011771
643.091600 0.036371
643.321600 0.003615
643.551500 -0.032639
643.781400 0.011609
644.011300 -0.021980
644.241300 -0.014848
644.471200 -0.035080
644.701200 0.023147
644.931200 0.008607
645.161200 0.009198
645.391200 0.007824
645.621200 0.028408
645.851200 -0.008953
646.081200 0.022776
646.311300 -0.008736
646.541300 0.029772
646.771400 -0.010993
647.001500 0.027080
647.231600 -0.011165
647.461600 -0.005503
647.691800 0.001741
647.921900 -0.015517
648.152000 0.006302
648.382100 0.003003
648.612300 0.025989
648.842400 0.009618
649.072600 0.016375
649.302800 -0.003475
649.532900 0.029913
649.763100 -0.011371
649.993300 0.012987
650.223600 0.017137
650.453800 -0.005404
650.684000 -0.004866
650.914300 0.000532
651.144500 0.023269
651.374800 0.026970
651.605100 -0.026818
651.835400 0.008551
652.065700 -0.003673
652.296000 -0.005752
652.526300 0.014125
652.756600 -0.001916
652.987000 0.026237
653.217300 -0.027937
653.447700 0.004648
653.678000 0.006195
653.908400 0.032797
654.138800 0.053035
654.369200 0.002924
654.599600 0.060929
654.830000 0.002023
655.060500 0.004646
655.290900 -0.002814
655.521300 0.028415
655.751800 0.030326
655.982300 0.002910
656.212800 0.000974
656.443300 0.001458
656.673800 0.001232
656.904300 0.002850
657.134800 0.021057
657.365300 0.018891
657.595900 0.015246
657.826400 0.026767
658.057000 0.021417
658.287500 0.017942
658.518100 0.002157
658.748700 0.019890
658.979300 0.012436
659.209900 -0.006595
659.440600 -0.033496
659.671200 -0.055580
659.901800 -0.047710
660.132500 -0.047883
660.363200 -0.035130
660.593800 0.007143
660.824500 -0.020563
661.055200 -0.005960
661.285900 -0.017970
661.516600 -0.017271
661.747400 0.032108
661.978100 0.003992
662.208800 -0.000465
662.439600 0.039494
662.670400 0.033995
662.901100 0.020905
663.131900 0.011125
663.362700 -0.005758
663.593500 0.061869
663.824300 -0.005046
664.055200 0.006890
664.286000 -0.009647
664.516800 0.012972
664.747700 0.003371
664.978600 -0.026127
665.209400 -0.001213
665.440300 0.055782
665.671200 0.009329
665.902100 0.025220
666.133000 0.011461
666.364000 0.039201
666.594900 -0.017125
666.825900 0.006763
667.056800 0.043905
667.287800 0.015164
667.518800 0.068766
667.749700 -0.001344
667.980700 0.033257
668.211700 0.014559
668.442800 0.020269
668.673800 0.057109
668.904800 -0.015105
669.135900 0.006471
669.366900 0.018429
669.598000 0.008798
669.829100 -0.025431
670.060200 0.006656
670.291300 0.033383
670.522400 0.043440
670.753500 -0.007896
670.984600 0.010866
671.215700 0.035918
671.446900 0.020670
671.678100 0.016552
671.909200 0.012724
672.140400 0.023535
672.371600 0.016813
672.602800 -0.002604
672.834000 0.005504
673.065200 0.005925
673.296400 -0.026165
673.527700 0.038906
673.758900 -0.042486
673.990200 0.014273
674.221400 0.000029
674.452700 0.015031
674.684000 0.000721
674.915300 0.020226
675.146600 0.001733
675.377900 -0.002345
675.609300 -0.009965
675.840600 0.023579
676.071900 0.010786
676.303300 -0.033114
676.534700 -0.021350
676.766100 -0.020202
676.997400 -0.000090
677.228800 0.015886
677.460200 -0.014328
677.691700 0.018135
677.923100 0.016734
678.154500 0.020805
678.386000 0.039877
678.617400 -0.008987
678.848900 0.004037
679.080400 0.018680
679.311900 0.015197
679.543400 -0.014518
679.774900 0.003618
680.006400 0.013183
680.237900 0.010211
680.469400 0.008891
680.701000 -0.002349
680.932500 0.007303
681.164100 0.013913
681.395700 0.007034
681.627300 0.045349
681.858900 0.019871
682.090500 0.004746
682.322100 -0.011688
682.553700 0.028164
682.785400 0.011711
683.017000 0.003439
683.248700 0.006847
683.480300 -0.015780
683.712000 -0.006737
683.943700 0.010976
684.175400 0.006965
684.407100 -0.009241
684.638800 -0.012243
684.870500 0.013462
685.102300 0.028675
685.334000 -0.013562
685.565800 0.039400
685.797500 0.039493
686.029300 -0.009902
686.261100 0.037778
686.492900 0.003927
686.724700 0.007745
686.956500 0.012425
687.188300 0.023845
687.420200 0.016486
687.652000 0.019746
687.883800 0.011180
688.115700 0.012704
688.347600 0.006618
688.579500 -0.003967
688.811400 0.016011
689.043300 0.020162
689.275200 -0.021602
689.507100 0.014301
689.739000 0.002116
689.971000 -0.005878
690.202900 0.002603
690.434900 0.009227
690.666900 0.005026
690.898800 0.000971
691.130800 0.004226
691.362800 -0.009612
691.594800 0.001245
691.826900 0.022322
692.058900 0.002828
692.290900 0.026422
692.523000 0.019306
692.755000 0.028784
692.987100 0.010511
693.219200 0.008528
693.451300 -0.005071
693.683400 0.016835
693.915500 -0.006422
694.147600 0.009824
694.379700 0.014610
694.611900 0.034159
694.844000 0.009114
695.076200 -0.032170
695.308300 0.027707
695.540500 0.012435
695.772700 -0.015077
696.004900 0.031233
696.237100 0.002155
696.469300 -0.005030
696.701600 0.007380
696.933800 -0.010135
697.166000 0.005879
697.398300 0.021907
697.630600 0.035121
697.862800 0.022327
698.095100 0.027518
698.327400 0.018615
698.559700 0.002845
698.792000 -0.010299
699.024300 0.010332
699.256700 0.011269
699.489000 0.015678
699.721400 0.027663
699.953700 -0.003820
700.186100 -0.021878
700.418500 0.013310
700.650900 0.009809
700.883300 -0.008684
701.115700 0.016310
701.348100 -0.016687
701.580600 -0.011730
701.813000 -0.001813
702.045400 0.016001
702.277900 0.003956
702.510400 0.003929
702.742900 -0.029910
702.975300 0.010576
703.207800 -0.016468
703.440300 -0.012009
703.672900 0.038770
703.905400 0.019434
704.137900 -0.001250
704.370500 0.014448
704.603000 0.049927
704.835600 -0.005281
705.068200 -0.001641
705.300800 0.007066
705.533400 0.024329
705.766000 -0.016542
705.998600 -0.001348
706.231200 0.002026
706.463800 0.015873
706.696500 0.018639
706.929100 0.001276
707.161800 -0.024144
707.394500 0.015980
707.627200 0.005387
707.859900 0.041883
708.092600 0.029534
708.325300 0.019073
708.558000 -0.009184
708.790700 0.006481
709.023500 0.031960
709.256200 -0.011458
709.489000 -0.014242
709.721700 -0.046371
709.954500 0.010104
710.187300 -0.011552
710.420100 0.005037
710.652900 -0.026031
710.885700 -0.006218
711.118600 -0.002518
711.351400 -0.046588
711.584200 0.000427
711.817100 -0.007469
712.050000 -0.017246
712.282800 -0.024928
712.515700 -0.009285
712.748600 0.004204
712.981500 -0.019419
713.214400 0.008660
713.447400 -0.014266
713.680300 0.001936
713.913200 0.001894
714.146200 0.031514
714.379100 0.001602
714.612100 -0.009492
714.845100 0.005956
715.078100 0.029678
715.311100 -0.012730
715.544100 -0.000161
715.777100 0.007919
716.010200 -0.023667
716.243200 -0.024087
716.476200 -0.007672
716.709300 0.015680
716.942400 0.034089
717.175400 -0.029239
717.408500 -0.004027
717.641600 0.010955
717.874700 0.015875
718.107800 0.000641
718.341000 0.006886
718.574100 -0.001905
718.807200 0.050682
719.040400 0.007900
719.273600 -0.003556
719.506700 0.033394
719.739900 0.006913
719.973100 0.019113
720.206300 0.007110
720.439500 0.015013
720.672700 -0.035873
720.906000 -0.002154
721.139200 0.013878
721.372500 0.009687
721.605700 -0.031069
721.839000 0.022185
722.072300 -0.015590
722.305500 -0.011309
722.538800 0.015003
722.772100 -0.019801
723.005500 -0.019578
723.238800 0.010715
723.472100 -0.027087
723.705500 0.007072
723.938800 -0.024320
724.172200 -0.014550
724.405600 -0.005656
724.638900 0.038878
724.872300 -0.015999
725.105700 0.004840
725.339100 0.011124
725.572600 0.002076
725.806000 -0.007321
726.039400 -0.006066
726.272900 0.038912
726.506300 -0.031251
726.739800 0.020841
726.973300 0.002370
727.206800 0.027006
727.440300 0.001075
727.673800 -0.013132
727.907300 0.008128
728.140800 0.025333
728.374300 -0.027674
728.607900 0.040774
728.841400 -0.008118
729.075000 0.008606
729.308600 -0.011390
729.542100 0.009386
729.775700 0.026783
730.009300 -0.006371
730.242900 0.000718
730.476600 0.017455
730.710200 0.024673
730.943800 0.007666
731.177500 0.028554
731.411100 0.021378
731.644800 0.025025
731.878500 -0.014203
732.112200 0.005260
732.345800 0.026405
732.579500 0.044973
732.813300 0.015932
733.047000 0.019436
733.280700 0.015691
733.514500 -0.000178
733.748200 -0.000390
733.982000 0.003376
734.215700 0.000899
734.449500 0.011155
734.683300 0.017459
734.917100 0.019536
735.150900 -0.028689
735.384700 0.014375
735.618500 0.005939
735.852400 0.018224
736.086200 0.017362
736.320100 -0.007069
736.553900 0.030389
736.787800 -0.003492
737.021700 -0.005921
737.255600 -0.011379
737.489500 -0.009336
737.723400 -0.012768
737.957300 0.007108
738.191200 -0.005141
738.425200 0.008626
738.659100 0.011512
738.893100 -0.015347
739.127100 0.010035
739.361000 0.018131
739.595000 0.023853
739.829000 0.003172
740.063000 -0.007267
740.297000 0.016338
740.531000 0.003555
740.765100 -0.017142
740.999100 0.014616
741.233200 0.005821
741.467200 0.015856
741.701300 -0.017525
741.935400 -0.003603
742.169500 -0.010942
742.403600 0.007039
742.637700 0.009058
742.871800 0.005659
743.105900 0.001778
743.340000 -0.009489
743.574200 -0.004354
743.808300 -0.001184
744.042500 -0.017747
744.276700 -0.009760
744.510800 -0.003065
744.745000 0.008605
744.979200 0.041359
745.213400 0.017947
745.447700 -0.011412
745.681900 -0.035834
745.916100 0.031108
746.150400 0.007122
746.384600 0.020352
746.618900 -0.043884
746.853200 0.006521
747.087400 -0.028482
747.321700 0.006882
747.556000 0.026449
747.790300 -0.001278
748.024700 -0.035047
748.259000 0.015836
748.493300 -0.025013
748.727700 -0.031631
748.962000 -0.007043
749.196400 0.006707
749.430800 0.007256
749.665200 -0.029028
749.899500 0.011320
750.133900 -0.011346
750.368400 -0.010331
750.602800 0.030156
750.837200 0.002888
751.071700 -0.004330
751.306100 0.008533
751.540600 -0.001105
751.775000 0.018423
752.009500 0.004942
752.244000 -0.009675
752.478500 -0.017706
752.713000 0.022424
752.947500 -0.022641
753.182000 0.015934
753.416600 0.020231
753.651100 0.017473
753.885600 -0.006326
754.120200 0.000251
754.354800 -0.000849
754.589400 0.019573
754.823900 -0.011938
755.058500 0.024571
755.293100 0.001038
755.527800 0.001860
755.762400 -0.018680
755.997000 0.029114
756.231700 0.002182
756.466300 0.018212
756.701000 0.003915
756.935600 0.015355
757.170300 0.009377
757.405000 0.030501
757.639700 0.002293
757.874400 0.017865
758.109100 0.009305
758.343800 0.006919
758.578600 0.003783
758.813300 0.017871
759.048100 0.000142
759.282800 0.007762
759.517600 -0.000438
759.752400 0.012446
759.987200 -0.019284
760.222000 0.011533
760.456800 0.027362
760.691600 0.022599
760.926400 0.013507
761.161300 0.013808
761.396100 -0.016387
761.631000 -0.003078
761.865800 0.033961
762.100700 0.009708
762.335600 0.016236
762.570500 -0.015929
762.805400 0.006375
763.040300 0.003464
763.275200 -0.013800
763.510100 0.002645
763.745000 0.030696
763.980000 0.040146
764.214900 0.005192
764.449900 0.027809
764.684900 0.016736
764.919800 -0.012148
765.154800 -0.021344
765.389800 -0.000673
765.624800 0.015559
765.859900 -0.009606
766.094900 -0.001554
766.329900 0.006981
766.565000 0.023259
766.800000 -0.011579
767.035100 0.006834
767.270100 0.002159
767.505200 0.007640
767.740300 -0.007999
767.975400 0.020178
768.210500 -0.001535
768.445600 0.002700
768.680800 0.021244
768.915900 0.018838
769.151000 -0.007327
769.386200 0.008356
769.621400 -0.008072
769.856500 0.005838
770.091700 0.011895
770.326900 -0.013368
770.562100 0.003417
770.797300 -0.005923
771.032500 -0.002001
771.267700 -0.017788
771.503000 0.006498
771.738200 0.038763
771.973500 -0.038376
772.208700 -0.009583
772.444000 0.020001
772.679300 -0.005693
772.914600 -0.012550
773.149900 -0.023020
773.385200 -0.004191
773.620500 -0.020267
773.855800 -0.009510
774.091100 -0.035139
774.326500 0.001901
774.561800 -0.003132
774.797200 0.035842
775.032600 0.048369
775.267900 -0.029426
775.503300 0.006119
775.738700 0.004340
775.974100 -0.000452
776.209500 -0.015734
776.445000 -0.015822
776.680400 0.072597
776.915800 0.001507
777.151300 0.014465
777.386800 -0.015744
777.622200 -0.022888
777.857700 -0.040165
778.093200 0.012577
778.328700 -0.018340
778.564200 0.018772
778.799700 0.015979
779.035200 0.013375
779.270700 -0.019767
779.506300 -0.002860
779.741800 -0.007405
779.977400 -0.011422
780.213000 0.009348
780.448500 0.003378
780.684100 0.032712
780.919700 0.005442
781.155300 0.017228
781.390900 0.003329
781.626500 -0.011667
781.862200 -0.004005
782.097800 0.036245
782.333500 0.004041
782.569100 -0.009325
782.804800 -0.011285
783.040500 0.015497
783.276100 -0.017822
783.511800 0.007271
783.747500 -0.007795
783.983200 0.013939
784.219000 0.026123
784.454700 0.012286
784.690400 0.020118
784.926200 0.013481
785.161900 0.011727
785.397700 -0.018132
785.633500 -0.014535
785.869200 0.013893
786.105000 0.009411
786.340800 0.010483
786.576600 -0.020506
786.812400 0.000354
787.048300 0.026053
787.284100 0.038210
787.519900 -0.017807
787.755800 0.002869
787.991700 -0.023489
788.227500 0.010344
788.463400 0.006498
788.699300 -0.001306
788.935200 0.029004
789.171100 0.047507
789.407000 -0.004353
789.642900 -0.015824
789.878900 0.013621
790.114800 0.018713
790.350700 -0.019727
790.586700 0.044525
790.822700 0.030902
791.058600 -0.005290
791.294600 0.014899
791.530600 -0.017820
791.766600 0.053551
792.002600 0.056391
792.238700 -0.010375
792.474700 0.039814
792.710700 -0.009657
792.946800 -0.031395
793.182800 0.022830
793.418900 0.008511
793.655000 -0.015705
793.891000 0.045207
794.127100 0.011709
794.363200 0.017129
794.599300 -0.012297
794.835500 0.006105
795.071600 0.024101
795.307700 0.017784
795.543900 -0.002546
795.780000 0.028396
796.016200 0.027654
796.252300 0.031655
796.488500 0.038328
796.724700 0.023509
796.960900 0.018395
797.197100 0.011412
797.433300 -0.016172
797.669500 0.005357
797.905800 0.010107
798.142000 0.010913
798.378300 -0.007492
798.614500 -0.016974
798.850800 0.015896
799.087100 0.014917
799.323300 -0.004063
799.559600 -0.067490
799.795900 0.023098
800.032200 0.036558
800.268600 0.006945
800.504900 -0.034533
800.741200 -0.015100
800.977600 0.006843
801.213900 0.003156
801.450300 0.017290
801.686700 -0.000269
801.923000 -0.006756
802.159400 0.020730
802.395800 -0.004094
802.632200 -0.011886
802.868600 -0.019390
803.105100 0.001717
803.341500 0.014376
803.577900 0.038287
803.814400 0.020619
804.050800 -0.028665
804.287300 -0.019332
804.523800 -0.006307
804.760300 0.023831
804.996800 -0.009875
805.233300 0.027675
805.469800 0.013553
805.706300 0.009040
805.942800 0.040737
806.179400 -0.032058
806.415900 0.010691
806.652500 0.017289
806.889000 0.039368
807.125600 0.020194
807.362200 -0.016243
807.598800 0.040005
807.835400 -0.015638
808.072000 0.019166
808.308600 0.006068
808.545200 -0.011558
808.781800 -0.016507
809.018500 0.008950
809.255100 -0.036776
809.491800 -0.014938
809.728400 0.031479
809.965100 -0.009128
810.201800 -0.005019
810.438500 -0.010425
810.675200 -0.013050
810.911900 -0.021059
811.148600 0.034959
811.385300 0.018375
811.622100 -0.038604
811.858800 0.012099
812.095600 -0.045817
812.332300 0.015068
812.569100 -0.064521
812.805900 -0.030979
813.042700 -0.014310
813.279500 0.041174
813.516300 -0.050271
813.753100 0.002262
813.989900 0.024500
814.226700 0.027332
814.463600 0.009167
814.700400 -0.011578
814.937300 0.006598
815.174200 -0.029748
815.411000 -0.007257
815.647900 -0.024057
815.884800 0.019279
816.121700 0.008545
816.358600 -0.020582
816.595500 -0.003547
816.832400 -0.004694
817.069400 -0.010814
817.306300 -0.059387
817.543300 -0.046622
817.780200 -0.025820
818.017200 0.057782
818.254200 0.045136
818.491200 -0.023751
818.728200 0.053614
818.965200 0.028521
819.202200 -0.065441
819.439200 -0.012929
819.676200 -0.055162
819.913300 -0.042136
820.150300 -0.025531
820.387400 0.031887
820.624400 0.004828
820.861500 0.036206
821.098600 0.020556
821.335700 0.047512
821.572700 0.040313
821.809900 -0.014835
822.047000 0.049886
822.284100 -0.017531
822.521200 0.048061
822.758400 -0.001939
822.995500 0.021866
823.232700 0.029919
823.469800 0.005373
823.707000 -0.086354
823.944200 -0.020248
824.181400 -0.015206
824.418600 0.011833
824.655800 -0.016571
824.893000 0.049987
825.130200 -0.061872
825.367500 0.032898
825.604700 -0.035519
825.841900 -0.022972
826.079200 0.021504
826.316500 -0.047959
826.553700 -0.032055
826.791000 0.071638
827.028300 0.014305
827.265600 0.028489
827.502900 -0.003977
827.740200 0.114952
827.977600 -0.011802
828.214900 -0.013725
828.452200 -0.028502
828.689600 0.002719
828.927000 -0.018878
829.164300 -0.030741
829.401700 -0.031261
829.639100 0.083450
829.876500 0.004204
830.113900 0.054360
830.351300 -0.002617
830.588700 0.015346
830.826100 -0.007553
831.063600 -0.002865
831.301000 0.059182
831.538500 0.005040
831.775900 0.004392
832.013400 -0.030250
832.250900 0.004139
832.488400 0.061562
832.725900 0.025567
832.963400 0.046034
833.200900 0.016395
833.438400 -0.032420
833.675900 0.185214
833.913500 0.063797
834.151000 0.009884
834.388600 0.011352
834.626100 -0.023367
834.863700 0.003322
835.101300 -0.050698
835.338900 -0.008571
835.576500 0.036001
835.814100 0.043689
836.051700 -0.058386
836.289300 0.104891
836.526900 -0.020631
836.764600 0.000247
837.002200 0.032861
837.239900 0.148109
837.477500 -0.025328
837.715200 -0.080761
837.952900 -0.039621
838.190600 0.046054
838.428300 -0.067898
838.666000 0.021195
838.903700 0.014541
839.141400 0.004051
839.379100 -0.067207
839.616900 -0.014812
839.854600 0.014366
840.092400 0.079193
840.330200 0.025077
840.567900 0.034305
840.805700 0.000797
841.043500 0.071160
841.281300 0.015539
841.519100 -0.004510
841.756900 -0.012349
841.994700 -0.088606
842.232600 0.068281
842.470400 -0.042538
842.708200 -0.153887
842.946100 -0.114536
843.184000 -0.110071
843.421800 -0.018889
843.659700 -0.021551
843.897600 0.008248
844.135500 0.035572
844.373400 -0.010219
844.611300 0.026614
844.849200 -0.049889
845.087200 0.028548
845.325100 0.136076
845.563100 0.015011
845.801000 0.116803
846.039000 -0.060823
846.277000 0.105388
846.514900 0.037710
846.752900 -0.133589
846.990900 -0.075782
847.228900 -0.107457
847.466900 0.179200
847.705000 0.060742
847.943000 -0.037408
848.181000 0.007400
848.419100 0.085742
848.657100 0.078031
848.895200 -0.042109
849.133300 0.074467
849.371300 0.076112
849.609400 0.011536
849.847500 -0.058296
850.085600 0.029573
850.323700 -0.013802
850.561900 -0.060111
850.800000 -0.073029
851.038100 0.208957
851.276300 -0.163657
851.514400 -0.106788
851.752600 0.104426
851.990800 -0.035828
852.228900 0.006035
852.467100 0.065882
852.705300 -0.016113
852.943500 -0.041795
853.181700 -0.003734
853.420000 -0.008181
853.658200 0.029185
853.896400 0.034188
854.134700 -0.050430
854.372900 -0.001254
854.611200 0.078747
854.849500 0.041275
855.087700 0.036200
855.326000 0.076003
855.564300 0.026420
855.802600 0.065555
856.040900 -0.018426
856.279200 0.042160
856.517600 0.009763
856.755900 -0.023397
856.994200 0.003726
857.232600 0.011458
857.471000 -0.016069
857.709300 0.033835
857.947700 -0.012140
858.186100 0.022023
858.424500 -0.023372
858.662900 -0.045631
858.901300 0.036156
859.139700 -0.015127
859.378100 -0.022941
859.616600 -0.036719
859.855000 -0.012831
860.093500 -0.080628
860.331900 0.058764
860.570400 0.043806
860.808900 0.007779
861.047300 0.014730
861.285800 0.027279
861.524300 0.037021
861.762800 0.026981
862.001300 0.080247
862.239900 0.123469
862.478400 -0.103990
862.716900 -0.072567
862.955500 0.056413
863.194000 -0.070606
863.432600 0.046995
863.671200 0.022841
863.909800 -0.058859
864.148300 -0.123808
864.386900 0.017597
864.625500 0.066661
864.864200 0.050286
865.102800 -0.145322
865.341400 0.024865
865.580000 -0.057856
865.818700 -0.005082
866.057300 -0.000327
866.296000 -0.045167
866.534700 -0.141512
866.773300 0.023761
867.012000 0.004211
867.250700 0.001299
867.489400 0.009789
867.728100 -0.101373
867.966900 0.050248
868.205600 0.003265
868.444300 -0.014496
868.683100 0.094128
868.921800 -0.024344
869.160600 0.015472
869.399300 -0.055871
869.638100 0.057482
869.876900 -0.094674
870.115700 -0.049707
870.354500 0.008857
870.593300 -0.002242
870.832100 0.023173
871.070900 0.129265
871.309700 -0.006228
871.548600 0.052413
871.787400 -0.125303
872.026300 -0.001349
872.265100 -0.036626
872.504000 -0.059972
872.742900 0.033541
872.981800 -0.015921
873.220700 -0.006712
873.459600 0.129291
873.698500 0.071911
873.937400 0.232819
874.176300 -0.113943
874.415300 0.040862
874.654200 -0.059502
874.893200 -0.079806
875.132100 -0.146660
875.371100 -0.043469
875.610100 0.057620
875.849100 0.009424
876.088000 -0.030543
876.327000 0.053270
876.566100 0.012834
876.805100 0.013955
877.044100 0.040241
877.283100 -0.161731
877.522200 -0.162307
877.761200 0.044385
878.000300 -0.006043
878.239300 -0.118641
878.478400 0.012094
878.717500 0.025563
878.956600 0.043156
879.195700 0.078611
879.434800 -0.073956
879.673900 -0.010748
879.913000 -0.009528
880.152100 0.019000
880.391300 -0.008132
880.630400 0.038153
880.869600 -0.031970
881.108700 0.029358
881.347900 0.059565
881.587100 -0.020289
881.826200 0.005322
882.065400 -0.026305
882.304600 0.142502
882.543800 -0.055698
882.783100 0.100117
883.022300 -0.029448
883.261500 -0.046978
883.500700 0.054895
883.740000 0.050659
883.979200 -0.010632
884.218500 -0.107326
884.457800 -0.025918
884.697100 -0.107647
884.936300 0.045692
885.175600 -0.014812
885.414900 0.070589
885.654200 0.065671
885.893600 -0.065853
886.132900 -0.004639
886.372200 0.058387
886.611600 -0.125772
886.850900 0.181022
887.090300 0.004809
887.329600 -0.006646
887.569000 -0.054544
887.808400 0.020186
888.047800 -0.078455
888.287200 -0.073647
888.526600 -0.006493
888.766000 -0.108715
889.005400 0.031623
889.244800 -0.057908
889.484300 -0.006308
889.723700 0.120995
889.963200 0.023569
890.202600 -0.055339
890.442100 -0.008915
890.681600 0.012420
890.921100 -0.094399
891.160600 0.002909
891.400100 0.105772
891.639600 0.018385
891.879100 -0.070577
892.118600 -0.027350
892.358100 -0.074913
892.597700 0.061906
892.837200 0.154564
893.076800 -0.060813
893.316300 -0.078051
893.555900 -0.037180
893.795500 0.219251
894.035100 -0.027908
894.274700 -0.029438
894.514300 0.189210
894.753900 0.080583
894.993500 0.028791
895.233100 -0.150748
895.472700 -0.095694
895.712400 0.069061
895.952000 -0.024060
896.191700 0.008088
896.431400 -0.045515
896.671000 0.213141
896.910700 -0.068269
897.150400 -0.065168
897.390100 -0.106314
897.629800 0.001500
897.869500 -0.084229
898.109200 0.058443
898.348900 -0.007160
898.588700 0.099365
898.828400 -0.012109
899.068200 0.020032
899.307900 0.029838
899.547700 0.051619
899.787500 0.110724
900.027200 0.031679
900.267000 -0.039671
900.506800 0.023911
900.746600 -0.037067
900.986400 -0.078157
901.226300 0.017663
901.466100 -0.081377
901.705900 0.057815
901.945800 0.094256
902.185600 0.105723
902.425500 0.040218
902.665400 -0.064403
902.905200 -0.031525
903.145100 0.023132
903.385000 -0.148217
903.624900 0.049019
903.864800 -0.002337
904.104700 -0.092761
904.344600 0.033512
904.584600 -0.121404
904.824500 0.023415
905.064400 0.026162
905.304400 0.043295
905.544400 0.045435
905.784300 0.104771
906.024300 -0.043887
906.264300 0.001651
906.504300 0.038948
906.744300 0.037291
906.984300 -0.058004
907.224300 0.022508
907.464300 0.013379
907.704300 0.100416
907.944400 0.032932
908.184400 -0.081995
908.424500 0.238902
908.664500 -0.051642
908.904600 -0.112378
909.144700 -0.065758
909.384700 0.112674
909.624800 -0.009399
909.864900 0.137590
910.105000 -0.100906
910.345200 -0.056137
910.585300 -0.065155
910.825400 -0.017616
911.065500 0.050611
911.305700 -0.013004
911.545800 -0.073207
911.786000 0.001787
912.026200 0.106682
912.266300 0.078031
912.506500 0.070460
912.746700 -0.096478
912.986900 -0.002791
913.227100 0.052359
913.467300 0.054314
913.707500 0.011654
913.947800 -0.021312
914.188000 0.305829
914.428300 0.006901
914.668500 0.079160
914.908800 -0.078528
915.149000 0.039879
915.389300 0.077784
915.629600 0.042863
915.869900 -0.005270
916.110200 -0.098744
916.350500 -0.175627
916.590800 -0.126501
916.831100 0.107734
917.071400 0.020419
917.311800 0.012739
917.552100 -0.010837
917.792500 -0.139021
918.032800 0.022305
918.273200 -0.027247
918.513600 -0.058047
918.753900 0.175947
918.994300 0.028985
919.234700 0.018220
919.475100 -0.080276
919.715500 -0.071973
919.956000 -0.041548
920.196400 -0.007468
920.436800 -0.132379
920.677300 -0.102354
920.917700 -0.044674
921.158200 0.173660
921.398600 -0.024361
921.639100 0.180018
921.879600 -0.379520
922.120100 -0.069039
922.360600 0.049747
922.601100 -0.063408
922.841600 0.129801
923.082100 0.207178
923.322600 -0.143347
923.563100 -0.124590
923.803700 -0.059118
924.044200 -0.074217
924.284800 0.296402
924.525400 0.122310
924.765900 0.023715
925.006500 -0.136630
925.247100 -0.067698
925.487700 0.182601
925.728300 0.164380
925.968900 -0.124614
926.209500 0.223048
926.450100 -0.033983
926.690800 0.137560
926.931400 -0.120153
927.172000 0.016142
927.412700 -0.048742
927.653300 -0.063657
927.894000 0.004950
928.134700 0.229792
928.375400 0.133659
928.616100 0.101592
928.856800 0.104989
929.097500 0.111586
929.338200 -0.095368
929.578900 0.025919
929.819600 0.380049
930.060400 -0.124338
930.301100 -0.015416
930.541900 -0.039243
930.782600 0.107472
931.023400 -0.091031
931.264200 -0.068789
931.504900 -0.001677
931.745700 0.504310
931.986500 0.014699
932.227300 0.324511
932.468100 0.132222
932.708900 -0.072379
932.949800 -0.007618
933.190600 -0.106349
933.431400 0.087241
933.672300 0.021788
933.913100 -0.021912
934.154000 0.356456
934.394900 -0.117037
934.635800 -0.102137
934.876600 0.035331
935.117500 0.398529
935.358400 0.230557
935.599300 -0.101347
935.840300 -0.064430
936.081200 0.156932
936.322100 -0.399649
936.563000 -0.003688
936.804000 0.374987
937.044900 0.505150
937.285900 -0.184203
937.526900 0.221849
937.767800 0.215011
938.008800 0.176199
938.249800 0.955014
938.490800 -0.040261
938.731800 0.130122
938.972800 0.514584
939.213800 0.188694
939.454900 0.019820
939.695900 -0.061284
939.936900 -0.032917
940.178000 0.033067
940.419000 0.003532
940.660100 0.748484
940.901200 0.016780
941.142200 -0.165367
941.383300 0.119632
941.624400 -0.162632
941.865500 0.136932
942.106600 3.270446
942.347700 -0.301976
942.588900 0.399155
942.830000 0.570940
943.071100 -0.230563
943.312300 0.012499
943.553400 0.895731
943.794600 0.169271
944.035700 -0.090931
944.276900 0.036117
944.518100 -0.184950
944.759300 0.128478
945.000500 -0.517612
945.241700 0.283215
945.482900 0.186054
945.724100 0.873020
945.965300 0.016361
946.206600 -0.191886
946.447800 3.063333
946.689100 0.026655
946.930300 -0.465108
947.171600 0.388004
947.412800 -0.156538
947.654100 -0.089955
947.895400 1.182633
948.136700 0.206002
948.378000 0.011567
948.619300 0.473301
948.860600 0.109347
949.101900 0.058627
949.343300 0.198284
949.584600 -0.170605
949.825900 0.191015
950.067300 0.221377
950.308600 -0.222766
950.550000 -0.126766
950.791400 -0.265774
951.032700 -0.480408
951.274100 0.126742
951.515500 0.362975
951.756900 -0.265682
951.998300 0.136454
952.239800 0.195042
952.481200 -0.151112
952.722600 2.975891
952.964000 0.185217
953.205500 -0.116538
953.446900 -0.171972
953.688400 0.295412
953.929900 0.329421
954.171300 1.770852
954.412800 -0.110706
954.654300 0.057845
954.895800 -0.202800
955.137300 -0.346568
955.378800 -0.224726
955.620300 2.896526
955.861800 0.065094
956.103400 0.114604
956.344900 -0.075821
956.586500 0.518584
956.828000 -0.030358
957.069600 0.797558
957.311100 -0.429308
957.552700 0.088410
957.794300 -0.045410
958.035900 -0.026181
958.277500 -0.446279
958.519100 -0.060867
958.760700 3.177248
959.002300 -0.673539
959.243900 -0.132021
959.485600 0.016008
959.727200 -0.128619
959.968800 0.119214
960.210500 -0.168421
960.452200 -0.163588
960.693800 -0.249419
960.935500 -3.301464
961.177200 -0.153255
961.418900 -0.476155
961.660600 -0.220587
961.902300 0.031626
962.144000 -0.322175
962.385700 -0.370575
962.627400 -0.014090
962.869200 2.719331
963.110900 3.003891
963.352700 -0.135785
963.594400 0.551672
963.836200 0.053605
964.077900 0.415386
964.319700 0.292120
964.561500 0.516457
964.803300 -0.148105
965.045100 -0.269677
965.286900 2.791691
965.528700 -0.223225
965.770500 -0.441434
966.012300 -0.388268
966.254200 -0.451099
966.496000 -0.366899
966.737900 0.077458
966.979700 0.035142
967.221600 -0.281826
967.463400 -0.187451
967.705300 -0.192693
967.947200 -0.561042
968.189100 0.420640
968.431000 0.212956
968.672900 -0.004071
968.914800 0.455007
969.156700 -0.145905
969.398700 0.463557
969.640600 -0.608186
969.882500 -0.247377
970.124500 -0.429134
970.366400 -0.127145
970.608400 -0.137730
970.850400 -0.499933
971.092300 -0.218144
971.334300 -0.103783
971.576300 -0.267497
971.818300 0.213083
972.060300 0.463075
972.302300 0.166516
972.544300 0.062028
972.786400 0.454932
973.028400 0.470429
973.270400 0.683079
973.512500 1.491362
973.754500 0.534963
973.996600 -0.018502
974.238700 -0.155619
974.480700 1.262634
974.722800 0.330701
974.964900 2.859739
975.207000 0.430756
975.449100 -0.904333
975.691200 -0.121612
975.933300 0.845098
976.175500 -2.913814
976.417600 0.451269
976.659700 0.216498
976.901900 -0.000413
977.144000 0.113386
977.386200 0.101622
977.628300 0.230218
977.870500 3.139249
978.112700 2.776701
978.354900 2.775974
978.597100 0.292844
978.839300 -0.025153
979.081500 -0.071396
979.323700 -1.908485
979.565900 -0.321726
979.808200 0.260968
980.050400 0.222021
980.292600 -0.212553
980.534900 -0.302083
980.777100 -0.197222
981.019400 -0.031801
981.261700 0.078580
981.504000 0.535308
981.746200 1.845098
981.988500 1.235107
982.230800 0.647138
982.473100 3.192567
982.715500 3.218010
982.957800 -0.287375
983.200100 2.990339
983.442400 -0.833853
983.684800 2.799341
983.927100 -0.196295
984.169500 0.019285
984.411800 -0.184169
984.654200 2.760422
984.896600 0.147278
985.139000 1.230449
985.381400 -0.028988
985.623800 3.218010
985.866200 -0.152680
986.108600 -2.269513
986.351000 0.034527
986.593400 -0.193057
986.835800 -0.055955
987.078300 0.322310
987.320700 0.390288
987.563200 0.382640
987.805600 -0.640405
988.048100 0.525509
988.290600 2.760422
988.533100 -2.956168
988.775600 0.004567
989.018000 1.860005
989.260500 0.272779
989.503100 -3.030600
989.745600 -0.371693
989.988100 -2.432969
990.230600 1.842332
990.473200 0.411761
990.715700 3.257679
990.958200 2.523746
991.200800 2.745075
991.443400 -3.039017
991.685900 -0.361396
991.928500 -2.158362
992.171100 -0.950203
992.413700 0.727866
992.656300 0.157346
992.898900 0.370743
993.141500 0.122288
993.384100 -0.072519
993.626700 -0.021839
993.869400 -0.164374
994.112000 -0.451978
994.354700 0.262698
994.597300 -0.217778
994.840000 -3.022016
995.082600 -0.812249
995.325300 -0.696629
995.568000 0.334567
995.810700 -0.472778
996.053400 0.000000
996.296100 0.277141
996.538800 -0.220193
996.781500 3.171141
997.024200 2.049218
997.267000 1.013539
997.509700 -0.050618
997.752400 2.768638
997.995200 -0.186140
998.237900 2.701568
998.480700 -0.325217
998.723500 -3.198657
998.966200 -0.301990
999.209000 -2.799341
999.451800 0.267495
999.694600 0.147194
999.937400 2.318063
1000.180200 0.338096
1000.423000 -0.239437
1000.665900 2.907949
1000.908700 2.396199
1001.151500 -0.359174
1001.394400 2.745075
1001.637200 -0.274690
1001.880100 0.778151
1002.123000 -0.391873
1002.365800 2.599883
1002.608700 -1.127361
1002.851600 -0.229731
1003.094500 -0.305633
1003.337400 -0.795775
1003.580300 -2.217484
1003.823200 -0.853136
1004.066100 -0.084639
1004.309100 2.719331
1004.552000 0.289269
1004.794900 0.414603
1005.037900 0.529485
1005.280800 2.806180
1005.523800 3.183555
1005.766700 -0.302812
1006.009700 -0.095740
1006.252700 -3.198657
1006.495700 -0.000668
1006.738700 0.000000
1006.981700 0.088811
1007.224700 -0.368803
1007.467700 2.008600
1007.710700 -0.053041
1007.953800 -0.091164
1008.196800 0.376561
1008.439800 0.219455
1008.682900 -0.416600
1008.925900 0.664635
1009.169000 0.147832
1009.412100 -3.305996
1009.655100 2.008600
1009.898200 -0.047716
1010.141300 -0.210483
1010.384400 -0.155660
1010.627500 -0.648429
1010.870600 0.501543
1011.113700 3.086360
1011.356800 0.354819
1011.600000 -0.678448
1011.843100 1.616884
1012.086300 -3.013259
1012.329400 -0.242116
1012.572600 -2.359835
1012.815700 -0.220418
1013.058900 0.000000
1013.302100 3.003891
1013.545200 -0.207551
1013.788400 0.006823
1014.031600 -2.701568
1014.274800 0.019804
1014.518000 3.161967
1014.761300 -0.187577
1015.004500 -2.890980
1015.247700 0.221185
1015.490900 -1.778151
1015.734200 0.046954
1015.977400 -0.544947
1016.220700 -3.063333
1016.464000 -0.013198
1016.707200 -1.124588
1016.950500 -0.265055
1017.193800 -0.016847
1017.437100 -0.383668
1017.680400 -0.069952
1017.923700 0.029930
1018.167000 0.365437
1018.410300 -0.428061
1018.653600 0.644301
1018.896900 3.021603
1019.140300 -0.106209
1019.383600 2.662758
1019.627000 0.591016
1019.870300 0.375478
1020.113700 0.464223
1020.357100 0.797037
1020.600400 2.853698
1020.843800 3.090258
1021.087200 0.889190
1021.330600 0.000000
1021.574000 0.085350
1021.817400 0.000000
1022.060800 -2.890980
1022.304200 0.000000
1022.547700 0.088422
1022.791100 -0.394400
1023.034500 0.149212
