# Wavelength	Absorbance
197.780200 -0.056985
197.984200 2.907949
198.188200 -0.154201
198.392200 2.682145
198.596300 -0.128201
198.800300 -0.509306
199.004400 -0.057337
199.208500 1.088136
199.412600 -0.189441
199.616800 2.768638
199.820900 -0.510508
200.025100 2.877947
200.229200 -0.492275
200.433400 0.433412
200.637600 -0.537774
200.841800 -0.361160
201.046100 0.648765
201.250300 -0.013241
201.454600 0.235017
201.658900 3.051153
201.863100 0.059250
202.067400 2.760422
202.271800 1.185287
202.476100 2.896526
202.680500 -0.203230
202.884800 2.980458
203.089200 1.256477
203.293600 0.101622
203.498000 -0.324260
203.702400 -0.187287
203.906900 -1.328536
204.111300 -2.956168
204.315800 -0.335355
204.520300 1.471893
204.724800 0.269648
204.929300 2.396199
205.133800 3.093772
205.338400 -0.295409
205.543000 3.171434
205.747500 -0.037186
205.952100 2.791691
206.156700 0.636688
206.361400 -2.599883
206.566000 -0.666177
206.770600 3.168203
206.975300 2.294466
207.180000 -1.650446
207.384700 2.587711
207.589400 -2.736397
207.794100 -0.256390
207.998900 -0.645896
208.203600 0.834225
208.408400 0.251480
208.613200 2.820201
208.818000 -0.345189
209.022800 0.636822
209.227600 0.067385
209.432500 2.907949
209.637300 0.974665
209.842200 2.294466
210.047100 0.333268
210.252000 -0.164406
210.456900 0.258991
210.661800 3.055378
210.866800 0.529641
211.071800 3.104487
211.276700 -0.406972
211.481700 0.827911
211.686700 -0.529808
211.891800 -0.256390
212.096800 0.583443
212.301800 0.226720
212.506900 -0.114088
212.712000 2.965672
212.917100 0.651154
213.122200 -0.109604
213.327300 0.016501
213.532500 0.000000
213.737600 0.435198
213.942800 -0.950782
214.148000 -0.247078
214.353200 -2.913814
214.558400 -0.152397
214.763600 0.027746
214.968900 0.232825
215.174100 0.109291
215.379400 0.000000
215.584700 2.846955
215.790000 0.236985
215.995300 2.820201
216.200700 -0.232837
216.406000 -0.161706
216.611400 -0.165105
216.816800 0.825184
217.022200 -0.364699
217.227600 0.258991
217.433000 2.536558
217.638400 0.327944
217.843900 -0.354675
218.049400 -2.622214
218.254800 0.361267
218.460300 0.004279
218.665900 0.139399
218.871400 0.343538
219.076900 0.220962
219.282500 2.960946
219.488100 -0.108668
219.693600 2.783904
219.899200 0.531244
220.104900 0.657438
220.310500 -0.797806
220.516100 -3.247973
220.721800 0.406773
220.927500 0.192623
221.133200 0.238302
221.338900 -0.093193
221.544600 0.296727
221.750300 3.183555
221.956100 0.474442
222.161800 2.338456
222.367600 -0.296767
222.573400 1.052388
222.779200 -3.013259
222.985000 0.000000
223.190900 -0.061731
223.396700 -0.292638
223.602600 -0.270089
223.808500 2.736397
224.014400 0.069081
224.220300 -0.158614
224.426200 -0.410359
224.632200 2.727541
224.838100 2.890421
225.044100 2.653213
225.250100 -0.385279
225.456100 0.053329
225.662100 2.632457
225.868100 -0.911913
226.074200 -0.536040
226.280200 -3.030600
226.486300 -0.019332
226.692400 -2.966142
226.898500 0.014688
227.104600 1.039194
227.310700 1.856662
227.516900 2.833784
227.723000 -0.895970
227.929200 0.757309
228.135400 3.074816
228.341600 2.622214
228.547800 3.108227
228.754100 -0.194766
228.960300 2.245513
229.166600 -2.827369
229.372900 -0.307689
229.579100 -0.101570
229.785500 -0.323920
229.991800 0.845098
230.198100 2.682145
230.404500 1.963788
230.610800 0.786407
230.817200 -2.643453
231.023600 -0.458662
231.230000 2.683047
231.436400 1.243803
231.642900 -0.353012
231.849300 -0.323920
232.055800 -1.201451
232.262300 3.280123
232.468800 -0.825576
232.675300 -0.466929
232.881800 2.599883
233.088400 0.836590
233.294900 2.550228
233.501500 0.132626
233.708100 0.000000
233.914700 -0.058414
234.121300 -3.115611
234.327900 -0.345842
234.534600 -0.019423
234.741300 0.699664
234.947900 -0.177417
235.154600 0.503653
235.361300 0.043362
235.568000 0.194646
235.774800 2.662758
235.981500 -0.316229
236.188300 0.000000
236.395100 0.185984
236.601800 -2.523746
236.808700 2.960946
237.015500 -0.281369
237.222300 0.210246
237.429200 3.265290
237.636000 3.042969
237.842900 1.851258
238.049800 2.918555
238.256700 2.653213
238.463600 0.172354
238.670600 2.970812
238.877500 0.025563
239.084500 -2.465383
239.291500 0.730798
239.498500 -0.187457
239.705500 -0.332438
239.912500 -1.008600
240.119500 -1.602060
240.326600 -0.492715
240.533700 -2.736397
240.740700 2.621176
240.947800 0.440111
241.154900 3.059185
241.362100 0.486013
241.569200 -0.258522
241.776400 0.840768
241.983500 2.783904
242.190700 -0.003225
242.397900 -2.495544
242.605100 -0.315879
242.812400 2.587711
243.019600 -0.035545
243.226900 -0.369064
243.434100 0.085915
243.641400 2.736397
243.848700 1.234686
244.056000 -3.047275
244.263400 2.653213
244.470700 -0.127265
244.678100 -0.086071
244.885400 2.945469
245.092800 0.364082
245.300200 -0.217253
245.507600 0.266299
245.715100 0.674793
245.922500 3.026125
246.130000 1.230449
246.337500 1.405403
246.544900 -0.589676
246.752400 3.362859
246.960000 3.165244
247.167500 0.034674
247.375000 0.000000
247.582600 -0.103975
247.790200 -0.907718
247.997800 0.212134
248.205400 3.262925
248.413000 0.348992
248.620600 -0.303058
248.828300 3.270213
249.035900 0.387147
249.243600 -0.055755
249.451300 0.227017
249.659000 3.192567
249.866700 0.950719
250.074500 0.956829
250.282200 3.189490
250.490000 3.021603
250.697800 2.846955
250.905600 2.480007
251.113400 2.929930
251.321200 -0.016420
251.529000 2.008600
251.736900 0.602349
251.944700 0.387333
252.152600 0.490248
252.360500 -0.361396
252.568400 -0.136583
252.776300 -0.371437
252.984300 -0.022793
253.192200 0.119139
253.400200 -0.040888
253.608200 0.382399
253.816200 1.273795
254.024200 2.872739
254.232200 -0.438725
254.440200 -3.094122
254.648300 2.769377
254.856400 0.484084
255.064400 0.074406
255.272500 1.189119
255.480600 -0.063669
255.688800 0.000000
255.896900 3.030195
256.105100 0.583314
256.313200 -0.233059
256.521400 -0.228009
256.729600 0.560333
256.937800 1.081529
257.146000 1.646730
257.354300 -3.013259
257.562500 -0.068881
257.770800 0.000000
257.979100 0.249385
258.187400 0.925299
258.395700 0.242052
258.604000 0.817145
258.812400 0.040556
259.020700 0.593155
259.229100 1.315621
259.437500 0.376008
259.645900 3.198382
259.854300 -0.143494
260.062700 0.094882
260.271100 -0.450338
260.479600 0.779541
260.688100 -0.580722
260.896500 0.286711
261.105000 -0.573796
261.313500 0.223236
261.522100 3.142702
261.730600 -0.140755
261.939200 2.701568
262.147700 2.989895
262.356300 -0.024303
262.564900 0.103589
262.773500 0.998926
262.982200 0.429005
263.190800 -2.599883
263.399500 0.112704
263.608100 -0.103997
263.816800 0.235288
264.025500 -0.036770
264.234200 -0.159701
264.442900 -0.470668
264.651700 3.097604
264.860400 -0.511883
265.069200 -0.028029
265.278000 2.990339
265.486800 0.084912
265.695600 -0.015134
265.904400 -0.088166
266.113300 -0.043570
266.322100 -0.073070
266.531000 0.204561
266.739900 -0.280722
266.948800 3.125806
267.157700 2.884795
267.366600 3.055378
267.575500 -0.136167
267.784500 -0.572315
267.993500 0.596817
268.202400 -0.244826
268.411400 3.021603
268.620500 2.761176
268.829500 -0.392523
269.038500 2.123852
269.247600 3.078819
269.456600 2.008600
269.665700 0.087150
269.874800 2.907411
270.083900 3.255273
270.293100 -2.736397
270.502200 0.207259
270.711400 2.127105
270.920500 -0.424374
271.129700 -0.183071
271.338900 0.036429
271.548100 0.913814
271.757300 -0.071209
271.966600 0.800516
272.175800 1.499458
272.385100 0.333239
272.594400 0.327359
272.803700 0.119056
273.013000 -0.387616
273.222300 2.994757
273.431600 0.189353
273.641000 3.209783
273.850400 2.701568
274.059700 0.146620
274.269100 1.954243
274.478500 2.950851
274.688000 3.183555
274.897400 2.866287
275.106900 -0.904480
275.316300 0.559834
275.525800 -0.069333
275.735300 -3.079181
275.944800 -0.113509
276.154300 0.087570
276.363900 -0.224707
276.573400 -0.145769
276.783000 2.965672
276.992600 0.203503
277.202200 -0.082415
277.411800 0.679226
277.621400 -0.025275
277.831000 0.417027
278.040700 0.047847
278.250300 0.100870
278.460000 0.845602
278.669700 -0.142086
278.879400 2.432969
279.089100 0.258996
279.298900 0.210598
279.508600 3.025715
279.718400 3.272770
279.928100 0.000000
280.137900 0.016716
280.347700 -0.353418
280.557600 -0.168744
280.767400 0.136471
280.977200 0.102779
281.187100 -2.878522
281.397000 0.085584
281.606900 -2.913814
281.816800 -0.085255
282.026700 2.357935
282.236600 -0.201400
282.446600 -0.256420
282.656500 -2.853698
282.866500 2.791691
283.076500 -0.848500
283.286500 0.565049
283.496500 -0.156357
283.706500 -0.087785
283.916600 0.776382
284.126600 -2.270512
284.336700 2.966142
284.546800 2.587711
284.756900 3.025715
284.967000 0.127149
285.177100 3.042969
285.387300 -2.995196
285.597400 0.417150
285.807600 2.127105
286.017800 0.036088
286.228000 -2.432969
286.438200 0.621206
286.648400 2.940516
286.858700 0.209911
287.068900 -0.024195
287.279200 0.224741
287.489500 -0.268074
287.699800 3.158965
287.910100 -0.559523
288.120400 0.777762
288.330800 -0.303638
288.541100 0.367079
288.751500 2.217484
288.961900 0.453746
289.172300 -3.186956
289.382700 0.003303
289.593100 2.913284
289.803500 -2.663701
290.014000 0.278890
290.224500 3.059185
290.434900 -2.813581
290.645400 -0.317500
290.855900 2.653213
291.066500 0.279841
291.277000 0.194065
291.487500 -0.197504
291.698100 0.408803
291.908700 1.083184
292.119300 0.357617
292.329900 0.107462
292.540500 2.728354
292.751100 0.638105
292.961800 -3.215638
293.172400 0.488387
293.383100 0.000000
293.593800 0.092210
293.804500 -0.126670
294.015200 -0.091056
294.226000 -2.975891
294.436700 -0.114473
294.647500 2.866287
294.858200 0.128856
295.069000 3.055378
295.279800 2.736397
295.490600 0.000000
295.701500 0.054863
295.912300 1.827513
296.123200 1.469577
296.334000 0.941180
296.544900 0.918869
296.755800 0.141711
296.966700 0.102779
297.177700 0.323747
297.388600 2.935003
297.599500 2.269513
297.810500 3.090258
298.021500 3.149219
298.232500 0.454072
298.443500 1.690196
298.654500 0.534084
298.865600 0.462106
299.076600 -0.291600
299.287700 -3.129690
299.498800 0.287310
299.709900 2.902003
299.921000 3.234517
300.132100 3.038620
300.343200 0.367899
300.554400 2.769377
300.765500 -0.168318
300.976700 -2.432969
301.187900 0.385156
301.399100 0.289835
301.610300 0.263080
301.821500 0.595361
302.032800 3.104487
302.244100 3.017451
302.455300 0.111729
302.666600 -0.105164
302.877900 0.240467
303.089200 2.357935
303.300600 0.274276
303.511900 0.447065
303.723300 0.374051
303.934600 2.884795
304.146000 -2.150098
304.357400 2.432969
304.568800 -0.247166
304.780300 0.153271
304.991700 0.083049
305.203100 -0.714034
305.414600 0.674636
305.626100 -0.458350
305.837600 -0.109357
306.049100 2.775974
306.260600 0.298336
306.472200 -0.456055
306.683700 -0.148161
306.895300 -0.161209
307.106900 0.201125
307.318400 3.034628
307.530100 0.109866
307.741700 2.806180
307.953300 0.478538
308.165000 0.000000
308.376600 0.135600
308.588300 0.809324
308.800000 0.131680
309.011700 0.229233
309.223400 3.125806
309.435100 -0.416038
309.646900 -0.207169
309.858600 0.896633
310.070400 0.663662
310.282200 1.447158
310.494000 0.384583
310.705800 3.168203
310.917600 0.345707
311.129500 0.316360
311.341300 0.301250
311.553200 3.180413
311.765100 3.139249
311.977000 0.176561
312.188900 1.531479
312.400800 3.030600
312.612700 0.311269
312.824700 0.628334
313.036600 0.173090
313.248600 0.781806
313.460600 2.999565
313.672600 3.275081
313.884600 -0.043330
314.096700 2.599883
314.308700 3.475962
314.520800 0.305488
314.732800 0.719730
314.944900 0.482427
315.157000 1.454374
315.369200 0.381217
315.581300 -0.046905
315.793400 0.009760
316.005600 3.226342
316.217700 0.617974
316.429900 0.503159
316.642100 1.259718
316.854300 0.340955
317.066600 0.727049
317.278800 0.403881
317.491100 0.439472
317.703300 0.390299
317.915600 0.898506
318.127900 3.445760
318.340200 0.880120
318.552500 0.299104
318.764900 0.193289
318.977200 0.329027
319.189600 1.439130
319.401900 0.348143
319.614300 0.492202
319.826700 0.351555
320.039200 0.423379
320.251600 0.308216
320.464000 0.536919
320.676500 3.265290
320.889000 -0.388315
321.101400 0.205874
321.313900 3.310268
321.526500 3.516800
321.739000 0.911194
321.951500 0.659322
322.164100 3.132580
322.376600 0.123787
322.589200 3.362859
322.801800 0.381807
323.014400 3.360972
323.227000 0.081875
323.439700 3.437433
323.652300 3.471292
323.865000 0.824520
324.077700 1.198273
324.290400 1.532117
324.503100 0.609202
324.715800 0.276611
324.928500 0.395097
325.141200 3.384174
325.354000 0.291509
325.566800 3.389875
325.779600 3.531990
325.992400 0.595378
326.205200 0.773199
326.418000 1.008979
326.630800 0.371444
326.843700 1.109022
327.056600 1.081059
327.269400 0.514426
327.482300 1.172154
327.695200 0.199007
327.908200 0.617415
328.121100 0.406655
328.334000 1.395763
328.547000 3.636688
328.760000 0.952472
328.973000 3.578983
329.186000 0.942097
329.399000 0.762868
329.612000 0.711348
329.825100 1.267669
330.038100 0.330142
330.251200 3.572872
330.464300 0.535754
330.677400 3.635484
330.890500 0.814855
331.103600 3.526469
331.316700 3.641970
331.529900 1.225328
331.743100 0.598003
331.956200 3.661339
332.169400 3.577836
332.382600 0.721536
332.595900 1.307630
332.809100 1.109222
333.022300 0.501485
333.235600 3.633468
333.448900 0.539624
333.662200 1.339868
333.875500 0.529927
334.088800 3.518251
334.302100 0.784352
334.515400 3.647089
334.728800 0.498856
334.942200 3.626956
335.155500 0.739507
335.368900 1.113412
335.582300 0.664988
335.795800 3.676968
336.009200 1.220077
336.222700 0.787715
336.436100 1.081805
336.649600 3.795949
336.863100 0.906676
337.076600 3.787035
337.290100 1.022057
337.503600 0.858517
337.717200 0.680109
337.930700 0.727520
338.144300 0.565399
338.357900 3.656290
338.571500 0.585979
338.785100 1.613300
338.998700 1.139847
339.212400 0.721190
339.426000 0.927527
339.639700 3.667266
339.853300 0.899307
340.067000 3.741388
340.280700 0.643051
340.494500 0.923787
340.708200 0.602528
340.921900 0.894097
341.135700 0.621548
341.349500 3.731266
341.563300 0.857031
341.777100 1.909609
341.990900 0.473993
342.204700 1.193828
342.418500 0.631688
342.632400 3.830460
342.846300 0.960642
343.060100 3.693023
343.274000 1.088640
343.487900 0.969201
343.701900 0.739806
343.915800 3.793022
344.129700 1.865011
344.343700 1.254260
344.557700 1.264615
344.771700 1.166242
344.985700 0.752236
345.199700 3.834484
345.413700 1.590850
345.627700 3.783332
345.841800 1.510685
346.055900 1.764219
346.269900 0.767241
346.484000 3.898615
346.698100 0.493247
346.912300 0.846018
347.126400 1.382265
347.340600 0.812448
347.554700 0.980717
347.768900 0.930153
347.983100 3.942058
348.197300 0.953738
348.411500 1.217170
348.625700 1.468820
348.840000 1.234915
349.054200 3.926085
349.268500 3.952889
349.482800 3.888011
349.697100 3.921634
349.911400 0.975285
350.125700 0.954403
350.340000 3.937869
350.554400 2.057516
350.768700 1.312923
350.983100 0.774806
351.197500 3.889246
351.411900 1.265106
351.626300 1.101219
351.840700 1.072052
352.055200 0.884691
352.269600 3.959471
352.484100 0.903577
352.698600 1.004197
352.913100 3.896857
353.127600 1.469602
353.342100 1.326052
353.556600 1.904808
353.771200 0.898969
353.985800 0.896368
354.200300 1.090165
354.414900 1.056297
354.629500 3.907143
354.844100 0.795616
355.058800 0.835475
355.273400 1.201991
355.488100 0.950121
355.702700 0.781397
355.917400 0.891645
356.132100 0.960149
356.346800 1.318299
356.561500 1.321317
356.776300 2.196176
356.991000 1.786407
357.205800 1.051757
357.420600 0.993006
357.635300 0.826102
357.850100 1.023421
358.065000 1.392051
358.279800 0.949949
358.494600 1.240664
358.709500 1.614939
358.924300 1.135066
359.139200 1.044019
359.354100 1.718689
359.569000 1.609594
359.783900 2.078779
359.998900 0.665208
360.213800 4.019947
360.428800 1.106476
360.643800 0.943480
360.858700 0.817931
361.073700 4.040048
361.288800 1.609173
361.503800 2.435387
361.718800 0.931488
361.933900 1.409440
362.148900 0.986267
362.364000 0.947438
362.579100 1.487657
362.794200 0.781833
363.009300 1.008541
363.224500 4.031206
363.439600 1.196911
363.654800 4.034989
363.869900 1.200795
364.085100 4.019947
364.300300 1.108135
364.515500 4.049102
364.730800 1.049586
364.946000 4.055608
365.161200 1.346757
365.376500 2.177875
365.591800 0.898861
365.807100 2.242251
366.022400 0.906920
366.237700 1.325205
366.453000 1.319222
366.668400 4.089375
366.883700 0.907691
367.099100 0.902981
367.314500 4.085968
367.529900 4.111531
367.745300 0.978274
367.960700 0.896529
368.176100 1.293731
368.391600 4.101850
368.607000 0.851456
368.822500 1.410333
369.038000 0.809332
369.253500 1.028891
369.469000 4.123721
369.684500 2.545909
369.900100 1.381410
370.115600 1.268585
370.331200 4.097847
370.546800 4.104009
370.762400 4.131266
370.978000 1.789926
371.193600 0.967947
371.409200 1.574569
371.624900 1.246895
371.840500 4.181129
372.056200 0.892017
372.271900 1.198581
372.487600 4.180183
372.703300 1.000225
372.919000 2.342126
373.134800 0.939013
373.350500 0.792794
373.566300 1.370020
373.782000 4.160709
373.997800 1.255684
374.213600 4.167937
374.429400 1.120338
374.645300 1.405566
374.861100 1.382700
375.077000 1.049720
375.292800 1.445933
375.508700 1.037600
375.724600 1.527539
375.940500 1.262236
376.156400 4.224455
376.372400 4.242367
376.588300 1.499335
376.804300 1.551673
377.020300 2.469429
377.236200 1.367346
377.452200 2.179911
377.668200 1.190106
377.884300 4.260358
378.100300 1.144700
378.316400 2.201974
378.532400 4.271028
378.748500 1.237647
378.964600 1.176049
379.180700 1.733206
379.396800 1.239007
379.612900 2.060377
379.829100 1.875424
380.045200 4.285760
380.261400 2.046478
380.477600 1.263707
380.693800 1.170737
380.910000 4.341138
381.126200 1.193053
381.342400 1.324763
381.558700 1.245310
381.774900 1.353100
381.991200 1.348150
382.207500 4.314668
382.423800 1.267540
382.640100 2.332953
382.856400 1.571958
383.072800 4.319502
383.289100 1.208027
383.505500 1.616127
383.721900 1.414935
383.938200 4.339471
384.154600 1.369208
384.371100 1.814032
384.587500 1.033871
384.803900 2.007054
385.020400 1.957569
385.236800 1.140694
385.453300 1.438801
385.669800 4.340702
385.886300 4.360745
386.102800 4.360120
386.319400 2.446027
386.535900 1.848226
386.752500 1.745128
386.969000 2.007837
387.185600 1.260721
387.402200 1.336501
387.618800 1.251046
387.835500 1.542658
388.052100 1.867492
388.268700 1.470146
388.485400 1.308638
388.702100 1.771454
388.918800 1.175782
389.135500 4.421044
389.352200 1.103498
389.568900 1.720724
389.785600 1.465406
390.002400 4.385195
390.219200 1.463412
390.435900 1.113943
390.652700 1.262335
390.869500 0.969485
391.086300 1.191076
391.303200 0.979798
391.520000 1.294620
391.736900 1.544937
391.953700 1.005001
392.170600 1.027722
392.387500 1.249939
392.604400 1.288725
392.821300 1.355887
393.038300 1.283934
393.255200 1.237198
393.472200 1.130370
393.689100 1.120501
393.906100 4.449926
394.123100 1.063089
394.340100 0.966791
394.557200 1.026843
394.774200 1.315112
394.991200 1.306746
395.208300 1.057435
395.425400 1.001671
395.642500 0.867271
395.859600 1.169223
396.076700 1.120478
396.293800 0.948476
396.510900 1.218887
396.728100 1.123857
396.945300 0.878861
397.162400 1.045933
397.379600 0.997299
397.596800 0.855738
397.814000 0.924827
398.031300 0.969896
398.248500 1.018175
398.465800 0.858851
398.683000 0.865816
398.900300 0.748049
399.117600 0.873581
399.334900 0.756310
399.552200 0.953579
399.769600 0.847190
399.986900 0.802863
400.204300 0.934651
400.421600 0.905457
400.639000 0.833902
400.856400 0.824522
401.073800 0.822006
401.291200 0.785260
401.508700 0.735810
401.726100 0.825420
401.943600 0.776460
402.161000 0.774983
402.378500 0.763804
402.596000 0.754199
402.813500 0.677845
403.031000 0.938340
403.248600 0.820689
403.466100 0.704086
403.683700 0.698389
403.901300 0.801894
404.118900 0.706378
404.336500 0.648010
404.554100 0.662733
404.771700 0.719671
404.989300 0.630326
405.207000 0.672250
405.424600 0.702186
405.642300 0.645131
405.860000 0.760559
406.077700 0.627265
406.295400 0.662929
406.513100 0.622836
406.730900 0.679027
406.948600 0.665734
407.166400 0.631193
407.384200 0.561578
407.602000 0.637427
407.819800 0.664683
408.037600 0.675399
408.255400 0.565202
408.473300 0.598964
408.691100 0.587034
408.909000 0.568673
409.126900 0.539230
409.344800 0.646986
409.562700 0.571548
409.780600 0.635040
409.998500 0.581663
410.216500 0.597965
410.434400 0.595203
410.652400 0.522917
410.870400 0.593774
411.088400 0.584036
411.306400 0.612746
411.524400 0.575666
411.742400 0.571151
411.960500 0.530928
412.178500 0.496785
412.396600 0.534607
412.614700 0.525922
412.832800 0.484417
413.050900 0.512024
413.269000 0.468750
413.487100 0.529753
413.705300 0.551734
413.923400 0.508408
414.141600 0.546149
414.359800 0.454712
414.578000 0.496069
414.796200 0.485164
415.014400 0.457421
415.232600 0.436850
415.450900 0.495251
415.669200 0.390443
415.887400 0.480893
416.105700 0.569415
416.324000 0.445739
416.542300 0.460681
416.760600 0.423861
416.979000 0.403022
417.197300 0.436088
417.415700 0.442074
417.634100 0.410920
417.852400 0.489172
418.070800 0.443076
418.289300 0.408182
418.507700 0.455777
418.726100 0.437877
418.944600 0.345233
419.163000 0.377171
419.381500 0.417159
419.600000 0.384593
419.818500 0.402233
420.037000 0.388081
420.255500 0.370978
420.474100 0.432949
420.692600 0.372235
420.911200 0.439642
421.129800 0.388331
421.348300 0.372121
421.566900 0.444319
421.785600 0.361394
422.004200 0.395573
422.222800 0.359777
422.441500 0.387615
422.660100 0.396695
422.878800 0.383879
423.097500 0.380926
423.316200 0.357340
423.534900 0.396907
423.753600 0.380887
423.972400 0.360824
424.191100 0.351521
424.409900 0.405941
424.628700 0.363988
424.847500 0.386023
425.066300 0.386977
425.285100 0.330364
425.503900 0.317641
425.722800 0.322227
425.941600 0.339058
426.160500 0.387047
426.379300 0.355105
426.598200 0.350403
426.817100 0.328374
427.036100 0.355790
427.255000 0.352304
427.473900 0.330127
427.692900 0.337057
427.911800 0.317947
428.130800 0.347213
428.349800 0.320503
428.568800 0.309300
428.787800 0.327811
429.006800 0.336336
429.225900 0.304498
429.444900 0.283085
429.664000 0.313890
429.883100 0.308691
430.102200 0.354550
430.321300 0.362966
430.540400 0.363871
430.759500 0.295193
430.978700 0.320221
431.197800 0.345869
431.417000 0.304197
431.636200 0.312209
431.855300 0.311263
432.074500 0.323190
432.293800 0.310150
432.513000 0.340012
432.732200 0.290652
432.951500 0.335580
433.170700 0.292393
433.390000 0.332503
433.609300 0.361409
433.828600 0.271939
434.047900 0.298885
434.267300 0.340722
434.486600 0.317938
434.705900 0.303742
434.925300 0.301149
435.144700 0.289077
435.364100 0.322551
435.583500 0.325986
435.802900 0.290071
436.022300 0.281148
436.241800 0.318224
436.461200 0.320986
436.680700 0.286997
436.900100 0.306124
437.119600 0.327998
437.339100 0.322303
437.558600 0.293240
437.778200 0.322855
437.997700 0.312223
438.217300 0.320644
438.436800 0.315274
438.656400 0.344665
438.876000 0.321006
439.095600 0.315970
439.315200 0.326453
439.534800 0.289449
439.754500 0.307517
439.974100 0.334270
440.193800 0.342738
440.413500 0.316442
440.633100 0.324928
440.852800 0.316278
441.072500 0.389000
441.292300 0.344274
441.512000 0.317314
441.731800 0.359222
441.951500 0.332949
442.171300 0.271616
442.391100 0.324069
442.610900 0.338472
442.830700 0.320024
443.050500 0.324839
443.270300 0.288124
443.490200 0.319510
443.710100 0.340268
443.929900 0.319323
444.149800 0.333324
444.369700 0.311901
444.589600 0.325769
444.809500 0.350475
445.029500 0.333431
445.249400 0.333419
445.469400 0.367047
445.689400 0.341518
445.909300 0.318253
446.129300 0.338187
446.349300 0.361329
446.569400 0.367377
446.789400 0.362144
447.009400 0.388066
447.229500 0.349361
447.449600 0.355269
447.669600 0.312383
447.889700 0.345426
448.109800 0.336437
448.330000 0.352821
448.550100 0.387204
448.770200 0.319671
448.990400 0.348992
449.210600 0.405809
449.430700 0.362664
449.650900 0.341788
449.871100 0.347806
450.091400 0.382187
450.311600 0.374496
450.531800 0.324680
450.752100 0.353046
450.972400 0.403799
451.192600 0.371626
451.412900 0.387570
451.633200 0.364976
451.853500 0.370912
452.073900 0.359520
452.294200 0.407312
452.514600 0.355919
452.734900 0.387055
452.955300 0.356134
453.175700 0.369053
453.396100 0.441351
453.616500 0.426004
453.836900 0.397362
454.057400 0.445631
454.277800 0.400174
454.498300 0.443901
454.718800 0.419523
454.939300 0.399048
455.159700 0.425104
455.380300 0.414922
455.600800 0.404522
455.821300 0.445294
456.041900 0.438202
456.262400 0.430492
456.483000 0.414300
456.703600 0.427288
456.924200 0.444602
457.144800 0.416304
457.365400 0.450409
457.586000 0.469633
457.806700 0.435880
458.027400 0.458170
458.248000 0.498365
458.468700 0.483280
458.689400 0.462886
458.910100 0.446262
459.130800 0.475312
459.351600 0.447195
459.572300 0.447091
459.793100 0.492117
460.013800 0.460905
460.234600 0.524043
460.455400 0.473750
460.676200 0.455209
460.897000 0.499755
461.117800 0.473188
461.338700 0.489709
461.559500 0.450149
461.780400 0.484184
462.001300 0.494600
462.222200 0.501106
462.443100 0.518945
462.664000 0.534132
462.884900 0.524498
463.105900 0.506896
463.326800 0.527368
463.547800 0.553785
463.768700 0.597998
463.989700 0.528583
464.210700 0.555535
464.431700 0.540653
464.652800 0.498712
464.873800 0.542316
465.094800 0.546323
465.315900 0.576019
465.537000 0.616345
465.758100 0.559967
465.979200 0.550043
466.200300 0.572093
466.421400 0.518041
466.642500 0.568091
466.863700 0.586637
467.084800 0.590537
467.306000 0.556789
467.527200 0.647151
467.748400 0.593663
467.969600 0.640632
468.190800 0.560642
468.412000 0.618956
468.633300 0.650646
468.854500 0.608158
469.075800 0.662083
469.297000 0.654354
469.518300 0.598716
469.739600 0.672771
469.961000 0.547172
470.182300 0.650486
470.403600 0.610788
470.625000 0.734481
470.846300 0.634053
471.067700 0.623775
471.289100 0.671058
471.510500 0.638413
471.731900 0.736372
471.953300 0.706461
472.174800 0.679535
472.396200 0.715163
472.617700 0.704647
472.839100 0.726350
473.060600 0.749604
473.282100 0.727393
473.503600 0.764578
473.725100 0.795647
473.946700 0.729416
474.168200 0.683223
474.389800 0.664153
474.611300 0.722176
474.832900 0.723189
475.054500 0.750509
475.276100 0.690992
475.497700 0.712826
475.719300 0.799404
475.941000 0.752076
476.162600 0.819040
476.384300 0.738669
476.606000 0.756199
476.827700 0.810351
477.049400 0.813157
477.271100 0.782252
477.492800 0.694493
477.714500 0.748919
477.936300 0.850170
478.158000 0.804565
478.379800 0.886676
478.601600 0.814154
478.823400 0.767602
479.045200 0.878260
479.267000 0.857261
479.488800 0.850252
479.710700 0.876418
479.932500 0.796910
480.154400 0.869701
480.376300 0.842442
480.598200 0.863544
480.820100 0.824602
481.042000 0.954872
481.263900 0.955896
481.485900 0.803342
481.707800 0.938405
481.929800 0.855819
482.151700 0.841775
482.373700 0.900187
482.595700 0.866236
482.817700 0.934035
483.039800 0.945834
483.261800 0.929167
483.483800 0.994176
483.705900 0.801447
483.928000 0.870341
484.150100 1.016931
484.372100 0.955152
484.594300 0.892637
484.816400 1.014004
485.038500 0.913685
485.260600 0.903708
485.482800 0.944977
485.705000 1.010309
485.927100 0.981810
486.149300 0.983056
486.371500 0.999481
486.593700 0.971289
486.816000 1.017067
487.038200 1.038972
487.260500 0.994164
487.482700 1.054829
487.705000 0.876629
487.927300 1.100787
488.149600 0.966498
488.371900 1.008149
488.594200 1.028958
488.816500 0.934111
489.038900 0.987639
489.261200 1.082493
489.483600 0.992055
489.706000 0.910295
489.928400 0.942800
490.150800 1.136639
490.373200 0.890006
490.595600 1.069342
490.818000 1.071498
491.040500 1.149864
491.263000 1.136574
491.485400 1.067266
491.707900 1.037220
491.930400 1.156162
492.152900 1.031550
492.375500 1.098622
492.598000 1.003186
492.820500 1.140946
493.043100 0.972133
493.265700 1.174540
493.488200 1.189589
493.710800 1.036211
493.933400 1.005174
494.156100 1.183070
494.378700 1.129550
494.601300 1.118669
494.824000 1.072688
495.046600 1.150936
495.269300 1.177300
495.492000 1.140133
495.714700 1.040862
495.937400 1.099339
496.160100 1.038165
496.382900 1.093353
496.605600 1.044262
496.828400 1.154722
497.051100 1.136340
497.273900 1.069578
497.496700 1.266379
497.719500 1.397851
497.942300 0.935822
498.165200 1.138910
498.388000 1.088815
498.610900 1.233537
498.833700 1.057027
499.056600 1.242258
499.279500 1.242437
499.502400 1.263329
499.725300 1.054899
499.948200 1.196984
500.171200 1.270624
500.394100 1.195979
500.617100 1.186514
500.840000 1.139368
501.063000 1.146301
501.286000 1.222334
501.509000 1.332244
501.732000 1.162766
501.955100 1.077283
502.178100 1.179603
502.401200 1.176138
502.624200 1.212599
502.847300 1.072935
503.070400 1.257077
503.293500 1.125257
503.516600 1.099465
503.739700 1.194720
503.962800 1.273195
504.186000 1.109618
504.409200 1.231940
504.632300 1.396220
504.855500 1.240944
505.078700 1.126657
505.301900 1.299652
505.525100 1.252511
505.748300 1.342247
505.971600 1.046849
506.194800 1.524386
506.418100 1.249644
506.641400 1.273892
506.864700 1.146038
507.088000 1.241076
507.311300 1.272621
507.534600 1.560131
507.757900 1.149799
507.981300 1.355114
508.204600 1.063100
508.428000 1.403109
508.651400 1.352880
508.874800 1.155947
509.098200 1.152807
509.321600 1.220452
509.545000 1.049298
509.768500 1.028402
509.991900 1.290970
510.215400 1.258523
510.438800 1.219580
510.662300 1.258620
510.885800 1.157757
511.109300 1.529973
511.332900 1.369470
511.556400 1.161754
511.779900 1.357533
512.003500 1.208661
512.227000 1.166138
512.450600 1.012696
512.674200 1.007436
512.897800 1.074975
513.121400 1.083861
513.345100 1.516283
513.568700 1.161437
513.792300 1.059711
514.016000 1.099369
514.239700 1.263408
514.463400 1.121852
514.687100 1.061205
514.910800 1.306520
515.134500 1.043431
515.358200 1.074423
515.581900 1.227114
515.805700 1.183534
516.029500 1.117210
516.253200 1.040678
516.477000 1.250988
516.700800 1.042612
516.924600 1.211082
517.148500 1.160964
517.372300 1.021639
517.596100 1.045600
517.820000 0.995570
518.043900 1.036161
518.267700 0.950231
518.491600 0.978703
518.715500 1.061183
518.939500 1.088212
519.163400 1.090130
519.387300 1.070714
519.611300 1.357884
519.835200 1.172851
520.059200 1.069089
520.283200 0.989109
520.507200 1.032269
520.731200 1.095052
520.955200 1.010025
521.179200 1.238988
521.403300 0.988026
521.627300 1.109176
521.851400 1.008603
522.075500 1.051768
522.299600 0.989817
522.523700 1.114258
522.747800 0.913394
522.971900 1.266135
523.196000 0.946265
523.420200 1.111877
523.644300 0.925325
523.868500 0.994037
524.092700 0.970297
524.316900 0.987089
524.541100 0.970719
524.765300 1.025931
524.989500 0.839641
525.213800 1.068111
525.438000 0.891067
525.662300 1.202245
525.886500 0.881707
526.110800 1.091483
526.335100 0.988014
526.559400 1.000196
526.783700 0.848365
527.008100 1.034745
527.232400 0.927388
527.456800 0.925325
527.681100 0.850601
527.905500 0.917670
528.129900 0.922913
528.354300 1.020616
528.578700 0.870074
528.803100 0.871069
529.027600 0.808052
529.252000 0.919082
529.476500 0.938074
529.700900 0.854231
529.925400 0.913833
530.149900 0.921905
530.374400 0.904278
530.598900 0.956728
530.823400 0.838228
531.048000 0.873392
531.272500 0.844555
531.497100 0.949631
531.721700 0.820575
531.946200 0.884557
532.170800 0.841744
532.395400 0.760461
532.620000 0.749231
532.844700 0.768243
533.069300 0.808476
533.294000 0.815771
533.518600 0.761718
533.743300 0.778309
533.968000 0.816902
534.192700 0.761004
534.417400 0.730532
534.642100 0.864690
534.866800 0.789937
535.091600 0.827013
535.316300 0.756944
535.541100 0.807651
535.765900 0.668416
535.990700 0.823014
536.215500 0.763131
536.440300 0.819632
536.665100 0.712643
536.889900 0.754729
537.114800 0.690162
537.339600 0.767080
537.564500 0.700048
537.789400 0.640921
538.014300 0.707967
538.239200 0.650935
538.464100 0.663998
538.689000 0.695430
538.913900 0.706772
539.138900 0.703430
539.363800 0.663776
539.588800 0.662871
539.813800 0.651784
540.038800 0.686959
540.263800 0.658667
540.488800 0.648313
540.713800 0.611365
540.938900 0.652587
541.163900 0.594920
541.389000 0.599934
541.614000 0.609360
541.839100 0.590934
542.064200 0.601450
542.289300 0.631941
542.514400 0.598836
542.739600 0.610074
542.964700 0.617297
543.189900 0.571288
543.415000 0.515625
543.640200 0.581584
543.865400 0.589811
544.090600 0.597708
544.315800 0.497821
544.541000 0.576336
544.766200 0.520727
544.991500 0.559629
545.216700 0.487406
545.442000 0.528335
545.667300 0.603705
545.892600 0.546642
546.117900 0.536381
546.343200 0.513490
546.568500 0.538492
546.793800 0.518857
547.019200 0.441183
547.244500 0.465606
547.469900 0.492581
547.695300 0.512633
547.920600 0.469078
548.146000 0.474345
548.371500 0.469767
548.596900 0.484049
548.822300 0.433959
549.047800 0.500113
549.273200 0.466684
549.498700 0.450922
549.724200 0.426227
549.949600 0.465768
550.175100 0.397558
550.400700 0.436480
550.626200 0.463236
550.851700 0.440201
551.077300 0.441408
551.302800 0.405790
551.528400 0.386773
551.754000 0.435926
551.979600 0.426304
552.205200 0.399495
552.430800 0.408118
552.656400 0.380444
552.882000 0.387990
553.107700 0.369579
553.333300 0.403227
553.559000 0.406434
553.784700 0.347458
554.010400 0.399651
554.236100 0.338871
554.461800 0.363000
554.687500 0.350269
554.913200 0.413375
555.139000 0.339421
555.364800 0.346999
555.590500 0.341972
555.816300 0.343990
556.042100 0.344328
556.267900 0.363379
556.493700 0.351966
556.719500 0.303443
556.945400 0.319975
557.171200 0.333055
557.397100 0.301184
557.623000 0.290388
557.848800 0.291386
558.074700 0.298238
558.300600 0.305594
558.526600 0.297941
558.752500 0.269652
558.978400 0.270130
559.204400 0.296054
559.430300 0.302932
559.656300 0.294949
559.882300 0.270657
560.108300 0.264630
560.334300 0.252132
560.560300 0.271672
560.786300 0.264048
561.012400 0.263868
561.238400 0.263547
561.464500 0.248418
561.690500 0.244750
561.916600 0.246056
562.142700 0.233321
562.368800 0.265574
562.594900 0.251034
562.821100 0.239132
563.047200 0.243694
563.273300 0.243488
563.499500 0.223276
563.725700 0.210318
563.951900 0.223868
564.178100 0.233581
564.404300 0.212547
564.630500 0.216358
564.856700 0.200934
565.082900 0.184168
565.309200 0.194488
565.535500 0.208878
565.761700 0.198439
565.988000 0.208069
566.214300 0.140797
566.440600 0.191293
566.666900 0.203714
566.893200 0.175912
567.119600 0.183901
567.345900 0.178340
567.572300 0.176354
567.798700 0.170118
568.025000 0.176229
568.251400 0.173977
568.477800 0.182155
568.704300 0.171649
568.930700 0.168022
569.157100 0.169956
569.383600 0.170591
569.610000 0.163550
569.836500 0.183644
570.063000 0.154643
570.289500 0.180300
570.516000 0.158687
570.742500 0.146520
570.969000 0.154487
571.195600 0.161162
571.422100 0.153092
571.648700 0.151107
571.875200 0.154734
572.101800 0.146038
572.328400 0.154034
572.555000 0.149441
572.781600 0.146117
573.008200 0.139660
573.234900 0.145323
573.461500 0.145315
573.688200 0.134944
573.914900 0.132599
574.141500 0.139501
574.368200 0.124731
574.594900 0.130486
574.821600 0.122218
575.048400 0.122024
575.275100 0.124779
575.501800 0.138111
575.728600 0.122763
575.955400 0.119471
576.182100 0.129414
576.408900 0.120920
576.635700 0.118358
576.862600 0.119624
577.089400 0.110323
577.316200 0.115118
577.543100 0.114060
577.769900 0.114317
577.996800 0.108523
578.223700 0.112378
578.450500 0.107963
578.677400 0.111201
578.904400 0.101376
579.131300 0.106264
579.358200 0.103109
579.585100 0.094328
579.812100 0.091737
580.039100 0.094922
580.266000 0.089973
580.493000 0.093764
580.720000 0.091563
580.947000 0.092302
581.174100 0.092976
581.401100 0.088395
581.628100 0.092943
581.855200 0.080590
582.082200 0.090949
582.309300 0.086631
582.536400 0.084034
582.763500 0.071700
582.990600 0.074605
583.217700 0.072818
583.444900 0.074534
583.672000 0.083753
583.899100 0.067671
584.126300 0.065511
584.353500 0.065999
584.580700 0.067070
584.807900 0.073584
585.035100 0.079086
585.262300 0.077582
585.489500 0.073235
585.716700 0.077937
585.944000 0.077391
586.171300 0.066773
586.398500 0.065844
586.625800 0.064972
586.853100 0.063736
587.080400 0.060885
587.307700 0.062208
587.535000 0.057110
587.762400 0.057589
587.989700 0.064422
588.217100 0.068102
588.444500 0.065359
588.671800 0.055579
588.899200 0.057747
589.126600 0.056737
589.354000 0.069081
589.581500 0.049901
589.808900 0.052980
590.036300 0.052724
590.263800 0.054019
590.491300 0.052351
590.718700 0.043444
590.946200 0.048274
591.173700 0.051480
591.401200 0.056538
591.628800 0.060915
591.856300 0.058162
592.083800 0.056229
592.311400 0.047935
592.538900 0.054071
592.766500 0.046451
592.994100 0.058025
593.221700 0.056816
593.449300 0.052906
593.676900 0.044822
593.904600 0.055246
594.132200 0.042126
594.359800 0.041510
594.587500 0.045190
594.815200 0.043029
595.042900 0.047157
595.270500 0.043847
595.498300 0.033732
595.726000 0.033991
595.953700 0.040947
596.181400 0.050019
596.409200 0.035646
596.636900 0.049606
596.864700 0.048532
597.092500 0.044197
597.320300 0.046895
597.548100 0.042915
597.775900 0.053622
598.003700 0.038579
598.231500 0.057559
598.459400 0.046608
598.687200 0.062818
598.915100 0.048544
599.143000 0.043987
599.370900 0.049143
599.598800 0.041129
599.826700 0.036063
600.054600 0.042565
600.282500 0.037825
600.510500 0.034285
600.738400 0.032801
600.966400 0.032521
601.194400 0.028578
601.422300 0.025969
601.650300 0.023558
601.878300 0.029371
602.106400 0.040295
602.334400 0.035899
602.562400 0.037714
602.790500 0.037036
603.018500 0.033502
603.246600 0.035034
603.474700 0.029602
603.702800 0.027185
603.930900 0.028970
604.159000 0.036121
604.387100 0.049762
604.615200 0.020860
604.843400 0.026749
605.071500 0.021761
605.299700 0.031841
605.527900 0.026109
605.756100 0.025930
605.984300 0.022868
606.212500 0.022911
606.440700 0.014040
606.668900 0.003694
606.897200 0.011451
607.125400 0.016616
607.353700 0.017560
607.581900 0.030735
607.810200 0.023496
608.038500 0.024180
608.266800 0.024526
608.495100 0.014503
608.723500 -0.001866
608.951800 0.024933
609.180100 0.022284
609.408500 0.016156
609.636900 0.021911
609.865300 0.031594
610.093600 0.032033
610.322000 0.022374
610.550500 0.017761
610.778900 0.023698
611.007300 0.011750
611.235700 0.023552
611.464200 0.028033
611.692700 0.022693
611.921100 0.016236
612.149600 0.041614
612.378100 0.027526
612.606600 0.024293
612.835100 0.020657
613.063700 0.026376
613.292200 0.006123
613.520800 0.014378
613.749300 0.035478
613.977900 0.026736
614.206500 0.013630
614.435100 0.032815
614.663700 0.025032
614.892300 0.016601
615.120900 0.014852
615.349500 0.035145
615.578200 0.022803
615.806800 0.029231
616.035500 0.026940
616.264200 0.025092
616.492900 0.026079
616.721600 0.019804
616.950300 0.021593
617.179000 0.009054
617.407700 0.009217
617.636500 0.007882
617.865200 0.017819
618.094000 0.010387
618.322700 0.009796
618.551500 0.003987
618.780300 0.005715
619.009100 0.017592
619.237900 0.014798
619.466700 0.013525
619.695600 0.013750
619.924400 0.017563
620.153300 0.021200
620.382100 0.018388
620.611000 0.006380
620.839900 0.002512
621.068800 -0.003617
621.297700 0.009094
621.526600 0.021641
621.755600 0.000729
621.984500 0.014577
622.213500 0.005426
622.442400 0.012948
622.671400 0.023753
622.900400 0.000354
623.129400 0.016149
623.358400 0.011384
623.587400 0.007046
623.816400 -0.006984
624.045400 0.013197
624.274500 0.002366
624.503500 0.012333
624.732600 -0.007459
624.961700 0.020142
625.190800 0.000362
625.419900 -0.002961
625.649000 0.024146
625.878100 0.006872
626.107200 0.012094
626.336400 0.007822
626.565500 0.008133
626.794700 0.011417
627.023800 -0.001428
627.253000 -0.003081
627.482200 0.008017
627.711400 -0.003916
627.940600 0.026774
628.169800 0.011957
628.399100 0.016654
628.628300 -0.000643
628.857600 0.015751
629.086800 0.006412
629.316100 0.002332
629.545400 -0.007148
629.774700 0.002624
630.004000 0.014465
630.233300 0.014825
630.462600 -0.011600
630.692000 0.005957
630.921300 0.020402
631.150700 0.001893
631.380100 0.002570
631.609400 0.007376
631.838800 0.017937
632.068200 0.004401
632.297600 0.005238
632.527100 0.018044
632.756500 0.001587
632.985900 0.002272
633.215400 0.011928
633.444800 -0.001360
633.674300 -0.001522
633.903800 -0.008989
634.133300 -0.013351
634.362800 0.013163
634.592300 0.000969
634.821800 0.017333
635.051400 0.035984
635.280900 -0.001881
635.510500 -0.008626
635.740000 0.013415
635.969600 0.035317
636.199200 0.001747
636.428800 -0.001612
636.658400 -0.007104
636.888000 -0.008638
637.117700 0.006892
637.347300 0.008134
637.577000 0.019240
637.806600 0.027012
638.036300 0.012816
638.266000 0.000219
638.495700 -0.000324
638.725400 0.024623
638.955100 -0.019185
639.184800 -0.006592
639.414500 0.022524
639.644300 -0.016052
639.874000 -0.032832
640.103800 -0.027522
640.333600 0.020388
640.563300 -0.003645
640.793100 0.029432
641.022900 0.000061
641.252800 0.011368
641.482600 0.009014
641.712400 0.012943
641.942300 0.006286
642.172100 0.021265
642.402000 -0.014119
642.631900 -0.021938
642.861700 -0.034866
643.091600 0.000707
643.321600 0.025002
643.551500 -0.036717
643.781400 0.013916
644.011300 0.003799
644.241300 -0.020847
644.471200 -0.010530
644.701200 -0.027384
644.931200 0.007879
645.161200 -0.005766
645.391200 0.018224
645.621200 0.036919
645.851200 0.032287
646.081200 -0.033571
646.311300 0.024907
646.541300 0.022538
646.771400 -0.013720
647.001500 0.014614
647.231600 -0.013499
647.461600 0.018011
647.691800 0.017866
647.921900 -0.022728
648.152000 0.034994
648.382100 -0.005452
648.612300 0.017846
648.842400 -0.012510
649.072600 0.030976
649.302800 0.028601
649.532900 0.007778
649.763100 0.005872
649.993300 0.022912
650.223600 0.019808
650.453800 0.009296
650.684000 -0.032609
650.914300 0.006654
651.144500 0.041038
651.374800 -0.000951
651.605100 -0.008835
651.835400 -0.009844
652.065700 -0.011594
652.296000 -0.015344
652.526300 -0.001052
652.756600 -0.021326
652.987000 0.009611
653.217300 -0.011092
653.447700 0.015531
653.678000 0.026600
653.908400 -0.000188
654.138800 0.044103
654.369200 0.021031
654.599600 0.001631
654.830000 0.018412
655.060500 -0.006291
655.290900 0.004832
655.521300 0.025117
655.751800 0.033513
655.982300 0.002910
656.212800 0.000974
656.443300 0.001458
656.673800 0.001232
656.904300 0.002850
657.134800 0.025833
657.365300 0.021338
657.595900 0.018791
657.826400 0.020763
658.057000 0.019988
658.287500 0.012930
658.518100 0.011720
658.748700 0.015134
658.979300 0.016471
659.209900 -0.001733
659.440600 -0.026684
659.671200 -0.046657
659.901800 -0.058521
660.132500 -0.058596
660.363200 0.000259
660.593800 -0.004222
660.824500 -0.027993
661.055200 0.015197
661.285900 -0.008453
661.516600 0.024229
661.747400 0.024086
661.978100 0.010984
662.208800 0.032865
662.439600 -0.016511
662.670400 0.017892
662.901100 0.006085
663.131900 0.067033
663.362700 -0.034572
663.593500 -0.017908
663.824300 -0.010984
664.055200 0.021091
664.286000 0.006291
664.516800 0.016194
664.747700 0.059737
664.978600 -0.003475
665.209400 -0.016118
665.440300 0.025877
665.671200 0.015561
665.902100 0.046718
666.133000 -0.005892
666.364000 -0.026857
666.594900 0.023234
666.825900 0.000322
667.056800 0.024932
667.287800 0.015998
667.518800 -0.006736
667.749700 0.009903
667.980700 0.024410
668.211700 -0.029391
668.442800 0.032155
668.673800 0.018840
668.904800 0.014129
669.135900 0.040824
669.366900 0.010695
669.598000 -0.013605
669.829100 -0.005967
670.060200 -0.031831
670.291300 0.025432
670.522400 -0.003407
670.753500 -0.008742
670.984600 0.002929
671.215700 0.015357
671.446900 0.039621
671.678100 -0.001549
671.909200 0.008446
672.140400 0.036854
672.371600 0.007465
672.602800 -0.011305
672.834000 -0.006837
673.065200 -0.025899
673.296400 0.005159
673.527700 -0.025449
673.758900 -0.007706
673.990200 0.023673
674.221400 0.011252
674.452700 -0.021920
674.684000 0.015135
674.915300 0.031079
675.146600 -0.009361
675.377900 -0.016894
675.609300 -0.006359
675.840600 0.014036
676.071900 0.001220
676.303300 -0.016545
676.534700 -0.018504
676.766100 0.020911
676.997400 -0.009872
677.228800 -0.000715
677.460200 0.002171
677.691700 0.011689
677.923100 -0.024419
678.154500 0.013241
678.386000 0.030518
678.617400 -0.012003
678.848900 -0.012464
679.080400 -0.008287
679.311900 0.021155
679.543400 -0.002312
679.774900 0.003569
680.006400 0.025221
680.237900 0.008042
680.469400 0.042578
680.701000 0.035329
680.932500 0.014994
681.164100 0.003021
681.395700 -0.003481
681.627300 0.004569
681.858900 0.016578
682.090500 -0.000997
682.322100 0.031155
682.553700 -0.005246
682.785400 -0.020790
683.017000 0.006405
683.248700 0.023885
683.480300 -0.009523
683.712000 -0.029405
683.943700 0.019090
684.175400 0.011809
684.407100 0.012968
684.638800 0.002399
684.870500 0.020341
685.102300 0.011907
685.334000 0.002505
685.565800 0.018861
685.797500 0.016301
686.029300 0.008250
686.261100 0.028844
686.492900 -0.006126
686.724700 0.015219
686.956500 0.005323
687.188300 0.015252
687.420200 0.024229
687.652000 0.003770
687.883800 -0.000667
688.115700 -0.010487
688.347600 0.005181
688.579500 0.007020
688.811400 0.002241
689.043300 0.025759
689.275200 0.015151
689.507100 0.019054
689.739000 0.000549
689.971000 -0.005927
690.202900 -0.018537
690.434900 0.028835
690.666900 -0.014630
690.898800 0.032187
691.130800 -0.001992
691.362800 0.011616
691.594800 -0.003483
691.826900 0.031148
692.058900 -0.017189
692.290900 0.016806
692.523000 0.010654
692.755000 0.012819
692.987100 0.011928
693.219200 0.008950
693.451300 0.015766
693.683400 0.004294
693.915500 -0.008159
694.147600 -0.017248
694.379700 -0.011438
694.611900 0.009629
694.844000 -0.005419
695.076200 -0.019687
695.308300 -0.006219
695.540500 0.005908
695.772700 -0.025309
696.004900 0.014922
696.237100 0.011388
696.469300 0.008035
696.701600 0.027566
696.933800 -0.003182
697.166000 -0.011943
697.398300 0.054427
697.630600 -0.002277
697.862800 0.006313
698.095100 0.021566
698.327400 0.023923
698.559700 -0.010542
698.792000 -0.011559
699.024300 0.004508
699.256700 0.022293
699.489000 0.003690
699.721400 0.029534
699.953700 -0.000753
700.186100 0.025100
700.418500 -0.007767
700.650900 -0.015108
700.883300 0.003185
701.115700 0.026007
701.348100 -0.005993
701.580600 0.018142
701.813000 -0.003084
702.045400 0.011472
702.277900 0.047351
702.510400 -0.003648
702.742900 -0.001250
702.975300 -0.007070
703.207800 0.004788
703.440300 0.044418
703.672900 0.032248
703.905400 -0.010583
704.137900 0.012239
704.370500 -0.001630
704.603000 0.019789
704.835600 -0.000508
705.068200 -0.014320
705.300800 -0.038468
705.533400 0.019611
705.766000 0.012269
705.998600 -0.021180
706.231200 -0.010144
706.463800 0.006741
706.696500 0.016928
706.929100 0.004390
707.161800 -0.010718
707.394500 0.037516
707.627200 -0.008520
707.859900 0.029717
708.092600 0.035423
708.325300 0.006110
708.558000 -0.008992
708.790700 -0.011325
709.023500 0.030858
709.256200 0.012540
709.489000 -0.007781
709.721700 -0.017785
709.954500 0.008404
710.187300 0.002475
710.420100 0.022878
710.652900 -0.027856
710.885700 -0.006801
711.118600 -0.027228
711.351400 -0.031919
711.584200 0.006827
711.817100 -0.001077
712.050000 -0.001889
712.282800 -0.053463
712.515700 -0.015526
712.748600 -0.034304
712.981500 -0.039661
713.214400 -0.007653
713.447400 -0.017458
713.680300 0.007221
713.913200 0.018345
714.146200 0.011294
714.379100 0.006741
714.612100 0.011205
714.845100 -0.013966
715.078100 -0.005277
715.311100 -0.022547
715.544100 -0.012096
715.777100 -0.020345
716.010200 -0.006535
716.243200 -0.011169
716.476200 -0.006545
716.709300 -0.020223
716.942400 -0.009255
717.175400 -0.007500
717.408500 0.012055
717.641600 -0.002889
717.874700 -0.000821
718.107800 0.001823
718.341000 0.005913
718.574100 0.021661
718.807200 0.048545
719.040400 0.020616
719.273600 0.007821
719.506700 0.000545
719.739900 -0.024428
719.973100 -0.024491
720.206300 -0.013355
720.439500 0.022991
720.672700 -0.015068
720.906000 0.001229
721.139200 0.006626
721.372500 -0.005959
721.605700 -0.001388
721.839000 0.008131
722.072300 0.005812
722.305500 0.000287
722.538800 -0.008012
722.772100 0.012998
723.005500 -0.013384
723.238800 0.010331
723.472100 -0.020317
723.705500 0.004080
723.938800 -0.014728
724.172200 -0.003480
724.405600 -0.016905
724.638900 0.024768
724.872300 -0.009957
725.105700 0.008150
725.339100 0.007947
725.572600 -0.006777
725.806000 -0.012905
726.039400 0.001968
726.272900 -0.004331
726.506300 0.001697
726.739800 -0.000330
726.973300 0.018021
727.206800 0.023995
727.440300 0.038474
727.673800 -0.006395
727.907300 0.024558
728.140800 0.008320
728.374300 -0.020620
728.607900 0.006395
728.841400 -0.003040
729.075000 -0.018825
729.308600 0.006759
729.542100 -0.013898
729.775700 -0.000939
730.009300 0.001307
730.242900 -0.011795
730.476600 0.015754
730.710200 -0.010196
730.943800 0.001410
731.177500 0.020342
731.411100 0.025953
731.644800 0.034351
731.878500 0.025447
732.112200 -0.004334
732.345800 -0.001106
732.579500 0.023090
732.813300 -0.000641
733.047000 0.001131
733.280700 0.054420
733.514500 -0.000228
733.748200 -0.008960
733.982000 -0.002286
734.215700 -0.001674
734.449500 0.007978
734.683300 0.022105
734.917100 0.009227
735.150900 -0.011194
735.384700 0.012198
735.618500 0.006272
735.852400 0.017799
736.086200 0.041008
736.320100 -0.012690
736.553900 0.015585
736.787800 -0.001839
737.021700 0.002752
737.255600 -0.006549
737.489500 0.016527
737.723400 -0.034489
737.957300 -0.034458
738.191200 -0.013030
738.425200 0.016403
738.659100 0.017489
738.893100 -0.032268
739.127100 0.030952
739.361000 0.011663
739.595000 0.012538
739.829000 0.011135
740.063000 -0.015011
740.297000 0.014965
740.531000 -0.010268
740.765100 -0.001253
740.999100 0.004587
741.233200 0.003069
741.467200 0.016081
741.701300 -0.010972
741.935400 -0.005756
742.169500 -0.014437
742.403600 -0.022645
742.637700 -0.019816
742.871800 -0.033222
743.105900 -0.021530
743.340000 -0.028447
743.574200 0.019783
743.808300 -0.007508
744.042500 -0.035900
744.276700 -0.029015
744.510800 -0.008006
744.745000 -0.000176
744.979200 0.022310
745.213400 0.018545
745.447700 0.006554
745.681900 0.027985
745.916100 0.002955
746.150400 0.008997
746.384600 -0.016809
746.618900 -0.025597
746.853200 0.009749
747.087400 -0.020018
747.321700 -0.026295
747.556000 -0.025806
747.790300 0.010290
748.024700 -0.022433
748.259000 0.007015
748.493300 0.022580
748.727700 0.002865
748.962000 0.010540
749.196400 -0.029074
749.430800 -0.020356
749.665200 -0.022732
749.899500 0.010509
750.133900 0.002349
750.368400 0.037626
750.602800 -0.021797
750.837200 -0.013837
751.071700 -0.000220
751.306100 -0.000683
751.540600 0.004237
751.775000 0.015886
752.009500 0.031041
752.244000 -0.007220
752.478500 -0.010480
752.713000 -0.004401
752.947500 0.000183
753.182000 0.017671
753.416600 -0.026446
753.651100 0.005371
753.885600 0.001983
754.120200 0.012257
754.354800 -0.007411
754.589400 0.013356
754.823900 -0.021174
755.058500 0.019582
755.293100 0.020007
755.527800 0.010720
755.762400 -0.014044
755.997000 0.005846
756.231700 -0.002589
756.466300 0.016805
756.701000 -0.004853
756.935600 0.009456
757.170300 -0.011427
757.405000 0.001606
757.639700 0.017891
757.874400 0.015223
758.109100 0.018747
758.343800 0.009917
758.578600 -0.001235
758.813300 0.017830
759.048100 0.015894
759.282800 -0.013069
759.517600 0.011657
759.752400 0.003326
759.987200 0.007354
760.222000 0.001505
760.456800 0.020236
760.691600 0.018026
760.926400 0.013314
761.161300 -0.007752
761.396100 -0.023090
761.631000 0.001513
761.865800 0.013440
762.100700 0.012557
762.335600 0.003110
762.570500 0.007361
762.805400 -0.006704
763.040300 0.009862
763.275200 -0.005129
763.510100 -0.004827
763.745000 0.018246
763.980000 0.019687
764.214900 -0.013945
764.449900 0.005081
764.684900 0.011685
764.919800 -0.012953
765.154800 0.007615
765.389800 0.022685
765.624800 0.025508
765.859900 -0.000950
766.094900 0.000952
766.329900 0.004010
766.565000 0.032737
766.800000 -0.001899
767.035100 0.018044
767.270100 0.018993
767.505200 -0.006699
767.740300 -0.012591
767.975400 0.010811
768.210500 0.000725
768.445600 -0.019675
768.680800 -0.001281
768.915900 0.002889
769.151000 0.001171
769.386200 0.011644
769.621400 -0.004195
769.856500 0.031426
770.091700 -0.006941
770.326900 -0.017620
770.562100 -0.009317
770.797300 0.006767
771.032500 -0.029924
771.267700 0.004766
771.503000 -0.004167
771.738200 0.027517
771.973500 -0.027059
772.208700 0.009157
772.444000 0.018154
772.679300 -0.002370
772.914600 0.004361
773.149900 0.007759
773.385200 -0.002112
773.620500 0.032268
773.855800 0.012490
774.091100 -0.013165
774.326500 -0.002497
774.561800 -0.009353
774.797200 0.022341
775.032600 0.020216
775.267900 -0.023261
775.503300 0.003560
775.738700 -0.002700
775.974100 0.017630
776.209500 0.019601
776.445000 0.014032
776.680400 0.016681
776.915800 -0.023926
777.151300 -0.027902
777.386800 -0.008572
777.622200 -0.021869
777.857700 0.013955
778.093200 -0.003336
778.328700 -0.007603
778.564200 -0.030459
778.799700 -0.003826
779.035200 -0.028163
779.270700 -0.012648
779.506300 0.026293
779.741800 -0.006861
779.977400 0.000440
780.213000 0.020279
780.448500 -0.004922
780.684100 0.007689
780.919700 0.006840
781.155300 -0.001876
781.390900 0.017583
781.626500 0.012401
781.862200 0.023192
782.097800 0.035376
782.333500 -0.000717
782.569100 -0.019820
782.804800 -0.007951
783.040500 -0.005392
783.276100 -0.032506
783.511800 0.032875
783.747500 0.002804
783.983200 -0.002200
784.219000 0.014871
784.454700 0.007406
784.690400 0.011127
784.926200 -0.001701
785.161900 0.005175
785.397700 0.003886
785.633500 -0.014267
785.869200 0.018358
786.105000 0.030414
786.340800 0.017782
786.576600 0.013258
786.812400 -0.006785
787.048300 0.007488
787.284100 0.010093
787.519900 0.014080
787.755800 -0.013487
787.991700 -0.010684
788.227500 -0.026694
788.463400 -0.001966
788.699300 -0.016320
788.935200 0.002893
789.171100 0.011892
789.407000 -0.016811
789.642900 0.006127
789.878900 0.031349
790.114800 0.005791
790.350700 -0.010936
790.586700 0.000874
790.822700 -0.008762
791.058600 -0.019258
791.294600 -0.006721
791.530600 -0.008241
791.766600 -0.003079
792.002600 0.005456
792.238700 0.002685
792.474700 0.012363
792.710700 -0.006148
792.946800 -0.007173
793.182800 -0.034568
793.418900 0.027051
793.655000 -0.012076
793.891000 0.059441
794.127100 0.033556
794.363200 0.016213
794.599300 -0.033254
794.835500 0.006354
795.071600 0.035191
795.307700 0.038337
795.543900 0.004192
795.780000 0.001187
796.016200 -0.010533
796.252300 0.045398
796.488500 0.044752
796.724700 0.011312
796.960900 0.031866
797.197100 0.044826
797.433300 -0.040744
797.669500 0.017604
797.905800 0.035683
798.142000 0.028294
798.378300 -0.011399
798.614500 -0.034569
798.850800 0.023053
799.087100 0.008892
799.323300 -0.001340
799.559600 -0.018654
799.795900 -0.001567
800.032200 0.049052
800.268600 0.006900
800.504900 0.022827
800.741200 0.024887
800.977600 0.008229
801.213900 -0.005110
801.450300 0.036979
801.686700 0.022981
801.923000 0.017007
802.159400 0.026020
802.395800 0.022075
802.632200 -0.009394
802.868600 0.003116
803.105100 0.000667
803.341500 0.003964
803.577900 0.022310
803.814400 0.005370
804.050800 -0.029199
804.287300 0.002515
804.523800 0.001497
804.760300 0.042874
804.996800 0.012284
805.233300 -0.026109
805.469800 0.031795
805.706300 0.005874
805.942800 -0.014086
806.179400 0.010188
806.415900 0.019310
806.652500 -0.008565
806.889000 0.043878
807.125600 0.035058
807.362200 -0.006400
807.598800 -0.005961
807.835400 -0.022197
808.072000 -0.025109
808.308600 0.020648
808.545200 0.015686
808.781800 -0.019701
809.018500 0.009275
809.255100 0.018263
809.491800 -0.029379
809.728400 0.009083
809.965100 0.014849
810.201800 -0.013494
810.438500 -0.054275
810.675200 -0.032498
810.911900 0.019967
811.148600 0.032450
811.385300 -0.004650
811.622100 -0.006643
811.858800 -0.050895
812.095600 -0.006815
812.332300 0.015041
812.569100 -0.048404
812.805900 -0.039238
813.042700 0.006376
813.279500 0.013677
813.516300 -0.064653
813.753100 0.018283
813.989900 0.008724
814.226700 0.018815
814.463600 -0.026695
814.700400 -0.031508
814.937300 0.004958
815.174200 0.016756
815.411000 0.008571
815.647900 -0.022824
815.884800 -0.029253
816.121700 -0.007131
816.358600 0.036575
816.595500 0.041899
816.832400 -0.047156
817.069400 -0.000978
817.306300 0.013135
817.543300 0.019103
817.780200 -0.054527
818.017200 0.059750
818.254200 0.031895
818.491200 -0.035367
818.728200 0.049172
818.965200 -0.006628
819.202200 -0.010565
819.439200 -0.035383
819.676200 -0.043770
819.913300 0.003072
820.150300 -0.016373
820.387400 0.009331
820.624400 0.093542
820.861500 -0.017455
821.098600 -0.003945
821.335700 0.075669
821.572700 -0.006263
821.809900 -0.048807
822.047000 -0.027296
822.284100 0.006761
822.521200 0.010973
822.758400 -0.015825
822.995500 0.013235
823.232700 0.028422
823.469800 0.006050
823.707000 -0.050122
823.944200 0.061040
824.181400 0.012090
824.418600 0.028185
824.655800 -0.078393
824.893000 -0.033948
825.130200 0.067779
825.367500 0.004479
825.604700 0.028753
825.841900 -0.029276
826.079200 0.035434
826.316500 0.023754
826.553700 -0.017741
826.791000 0.044546
827.028300 -0.009518
827.265600 0.012945
827.502900 0.027841
827.740200 -0.002200
827.977600 -0.026741
828.214900 0.006215
828.452200 0.022268
828.689600 -0.024831
828.927000 0.008888
829.164300 -0.049500
829.401700 0.008685
829.639100 0.018852
829.876500 -0.056805
830.113900 0.102401
830.351300 -0.002691
830.588700 -0.011224
830.826100 -0.020037
831.063600 0.002336
831.301000 0.011488
831.538500 -0.026956
831.775900 -0.039398
832.013400 -0.038755
832.250900 0.026887
832.488400 -0.016002
832.725900 -0.043056
832.963400 -0.004099
833.200900 0.008163
833.438400 -0.016736
833.675900 0.063298
833.913500 0.048870
834.151000 0.054078
834.388600 0.010507
834.626100 -0.022605
834.863700 0.058411
835.101300 -0.035905
835.338900 -0.018020
835.576500 0.024441
835.814100 -0.025631
836.051700 0.065714
836.289300 0.076547
836.526900 0.029974
836.764600 0.136514
837.002200 0.044793
837.239900 -0.048766
837.477500 0.060704
837.715200 -0.083247
837.952900 -0.015831
838.190600 -0.005579
838.428300 -0.088341
838.666000 0.055815
838.903700 -0.008237
839.141400 -0.073377
839.379100 -0.094842
839.616900 0.025936
839.854600 -0.019993
840.092400 -0.026856
840.330200 0.053188
840.567900 0.075933
840.805700 0.028578
841.043500 0.036794
841.281300 -0.037847
841.519100 0.063108
841.756900 0.022052
841.994700 -0.170215
842.232600 0.071263
842.470400 0.113639
842.708200 -0.100750
842.946100 -0.089443
843.184000 -0.110143
843.421800 -0.022108
843.659700 -0.007529
843.897600 -0.027062
844.135500 -0.008456
844.373400 -0.077055
844.611300 0.133941
844.849200 0.026694
845.087200 -0.014395
845.325100 0.058177
845.563100 -0.030813
845.801000 -0.035944
846.039000 0.021895
846.277000 -0.013493
846.514900 0.035647
846.752900 -0.090973
846.990900 0.220389
847.228900 -0.037023
847.466900 0.048728
847.705000 0.034124
847.943000 -0.042626
848.181000 0.060742
848.419100 -0.031249
848.657100 0.149312
848.895200 -0.050552
849.133300 0.033261
849.371300 -0.020463
849.609400 0.020794
849.847500 -0.049563
850.085600 0.002478
850.323700 -0.028399
850.561900 -0.054871
850.800000 -0.029628
851.038100 -0.042901
851.276300 -0.180228
851.514400 -0.103230
851.752600 0.113804
851.990800 -0.048958
852.228900 -0.126938
852.467100 0.045131
852.705300 0.003995
852.943500 0.012882
853.181700 0.029113
853.420000 -0.011063
853.658200 0.001932
853.896400 0.032793
854.134700 0.028143
854.372900 -0.015254
854.611200 0.026350
854.849500 0.014678
855.087700 0.002565
855.326000 0.068586
855.564300 0.038461
855.802600 -0.004386
856.040900 0.015788
856.279200 0.035377
856.517600 0.055314
856.755900 -0.054899
856.994200 -0.002717
857.232600 -0.025485
857.471000 0.012609
857.709300 0.003123
857.947700 -0.044673
858.186100 0.095803
858.424500 0.020062
858.662900 -0.029661
858.901300 0.034103
859.139700 0.049756
859.378100 -0.056841
859.616600 0.075072
859.855000 -0.059881
860.093500 0.020054
860.331900 -0.101037
860.570400 0.110548
860.808900 0.061961
861.047300 -0.007361
861.285800 0.017827
861.524300 0.071802
861.762800 0.032221
862.001300 0.027269
862.239900 0.106057
862.478400 -0.041535
862.716900 -0.034944
862.955500 -0.034471
863.194000 -0.044178
863.432600 -0.027717
863.671200 0.000801
863.909800 -0.033528
864.148300 -0.077371
864.386900 0.040348
864.625500 0.014081
864.864200 -0.001895
865.102800 0.111793
865.341400 0.007894
865.580000 -0.131478
865.818700 0.045486
866.057300 -0.061422
866.296000 -0.029154
866.534700 0.034014
866.773300 -0.015720
867.012000 -0.077057
867.250700 -0.040268
867.489400 -0.066433
867.728100 -0.022191
867.966900 0.121914
868.205600 -0.148042
868.444300 0.074831
868.683100 -0.015639
868.921800 -0.034285
869.160600 0.064117
869.399300 0.069659
869.638100 0.064117
869.876900 -0.108093
870.115700 -0.018104
870.354500 -0.036474
870.593300 -0.047076
870.832100 0.201593
871.070900 -0.029408
871.309700 0.098910
871.548600 0.096649
871.787400 -0.079553
872.026300 -0.021189
872.265100 -0.112560
872.504000 -0.077707
872.742900 -0.117121
872.981800 0.153979
873.220700 0.016210
873.459600 0.131325
873.698500 -0.034514
873.937400 -0.002017
874.176300 -0.038351
874.415300 -0.045142
874.654200 0.041571
874.893200 -0.067526
875.132100 -0.140275
875.371100 0.004255
875.610100 0.002922
875.849100 0.132081
876.088000 0.105669
876.327000 0.049917
876.566100 -0.019699
876.805100 -0.028988
877.044100 -0.091025
877.283100 0.021014
877.522200 -0.118893
877.761200 -0.056886
878.000300 0.014667
878.239300 0.016728
878.478400 0.068328
878.717500 -0.033005
878.956600 0.025976
879.195700 0.095019
879.434800 0.037240
879.673900 -0.000388
879.913000 0.021217
880.152100 0.041944
880.391300 0.051766
880.630400 0.074354
880.869600 0.062009
881.108700 -0.107113
881.347900 -0.006086
881.587100 -0.011068
881.826200 0.019286
882.065400 0.114619
882.304600 -0.120343
882.543800 -0.053393
882.783100 0.109654
883.022300 -0.068599
883.261500 0.057171
883.500700 0.094156
883.740000 0.098281
883.979200 0.071882
884.218500 -0.073013
884.457800 -0.044571
884.697100 -0.001145
884.936300 0.007289
885.175600 0.037494
885.414900 -0.071735
885.654200 0.078024
885.893600 -0.064774
886.132900 0.175255
886.372200 -0.072031
886.611600 -0.056400
886.850900 0.074495
887.090300 0.100649
887.329600 0.020855
887.569000 -0.069142
887.808400 -0.041492
888.047800 -0.101720
888.287200 0.039175
888.526600 -0.022191
888.766000 -0.161035
889.005400 -0.018811
889.244800 0.096667
889.484300 -0.076509
889.723700 0.026707
889.963200 0.082441
890.202600 0.140342
890.442100 -0.019535
890.681600 -0.014556
890.921100 -0.023822
891.160600 0.094589
891.400100 0.002385
891.639600 0.049236
891.879100 0.028896
892.118600 -0.045882
892.358100 -0.127767
892.597700 0.111579
892.837200 0.105499
893.076800 -0.011135
893.316300 0.055632
893.555900 0.147023
893.795500 0.034905
894.035100 -0.039277
894.274700 -0.052601
894.514300 -0.101820
894.753900 -0.148771
894.993500 0.017618
895.233100 -0.090947
895.472700 -0.060034
895.712400 0.112224
895.952000 -0.012398
896.191700 -0.041424
896.431400 0.011792
896.671000 0.083024
896.910700 -0.013496
897.150400 -0.090772
897.390100 0.015172
897.629800 -0.005947
897.869500 -0.100953
898.109200 -0.047163
898.348900 0.074117
898.588700 0.036899
898.828400 -0.075398
899.068200 -0.041626
899.307900 0.016699
899.547700 0.028381
899.787500 0.015847
900.027200 -0.032925
900.267000 0.069751
900.506800 0.055607
900.746600 -0.000346
900.986400 0.149041
901.226300 0.095747
901.466100 -0.186119
901.705900 0.110641
901.945800 0.116684
902.185600 -0.010796
902.425500 -0.053818
902.665400 -0.048822
902.905200 -0.002453
903.145100 0.090805
903.385000 0.019038
903.624900 -0.000276
903.864800 -0.045210
904.104700 0.144283
904.344600 -0.016251
904.584600 -0.128008
904.824500 -0.134732
905.064400 0.024270
905.304400 0.124028
905.544400 0.095381
905.784300 0.032906
906.024300 0.014146
906.264300 0.023517
906.504300 0.029873
906.744300 0.016200
906.984300 -0.045042
907.224300 -0.082199
907.464300 0.070877
907.704300 -0.060732
907.944400 -0.144171
908.184400 -0.019907
908.424500 0.036335
908.664500 -0.135278
908.904600 -0.121723
909.144700 -0.037501
909.384700 0.368798
909.624800 -0.009399
909.864900 0.159607
910.105000 0.089360
910.345200 -0.162848
910.585300 0.091424
910.825400 -0.071180
911.065500 -0.006178
911.305700 0.033812
911.545800 -0.106001
911.786000 0.005985
912.026200 -0.061220
912.266300 -0.030841
912.506500 0.107006
912.746700 0.054724
912.986900 -0.085906
913.227100 -0.065877
913.467300 -0.091621
913.707500 -0.187395
913.947800 0.260970
914.188000 0.136094
914.428300 0.015581
914.668500 0.311214
914.908800 -0.021245
915.149000 -0.002971
915.389300 -0.058436
915.629600 0.192631
915.869900 -0.012823
916.110200 -0.167876
916.350500 0.030099
916.590800 -0.014442
916.831100 0.124698
917.071400 0.038641
917.311800 0.037577
917.552100 -0.129196
917.792500 -0.090979
918.032800 0.008358
918.273200 0.241575
918.513600 0.095382
918.753900 0.163873
918.994300 0.016990
919.234700 0.223209
919.475100 -0.103154
919.715500 0.082780
919.956000 0.014340
920.196400 -0.101731
920.436800 -0.118837
920.677300 -0.088912
920.917700 0.034078
921.158200 -0.097536
921.398600 0.014768
921.639100 0.133253
921.879600 -0.231874
922.120100 -0.137223
922.360600 -0.063545
922.601100 0.141998
922.841600 0.027209
923.082100 -0.127584
923.322600 -0.016930
923.563100 -0.022648
923.803700 0.199905
924.044200 0.078472
924.284800 0.043915
924.525400 -0.066768
924.765900 0.095043
925.006500 -0.128885
925.247100 -0.009670
925.487700 0.022900
925.728300 0.264737
925.968900 0.139746
926.209500 -0.172169
926.450100 -0.055083
926.690800 0.352158
926.931400 -0.008639
927.172000 -0.013182
927.412700 0.007911
927.653300 -0.031851
927.894000 -0.151597
928.134700 -0.063608
928.375400 0.038670
928.616100 0.074503
928.856800 -0.203293
929.097500 0.101747
929.338200 -0.009784
929.578900 0.809647
929.819600 0.371945
930.060400 0.003821
930.301100 0.214311
930.541900 0.098442
930.782600 0.382868
931.023400 0.010180
931.264200 -0.137989
931.504900 0.053274
931.745700 -0.025129
931.986500 -0.117024
932.227300 -0.063669
932.468100 0.156520
932.708900 3.368845
932.949800 0.362791
933.190600 -0.145200
933.431400 -0.167386
933.672300 0.003938
933.913100 0.109792
934.154000 0.177535
934.394900 0.082325
934.635800 -0.000453
934.876600 -0.092635
935.117500 0.836600
935.358400 3.508395
935.599300 0.295753
935.840300 -0.322939
936.081200 0.005633
936.322100 0.186147
936.563000 0.143303
936.804000 0.446370
937.044900 0.302562
937.285900 -0.072129
937.526900 0.008774
937.767800 0.262849
938.008800 -0.118662
938.249800 0.237343
938.490800 0.013776
938.731800 0.406770
938.972800 0.217008
939.213800 0.204167
939.454900 0.146004
939.695900 -0.189024
939.936900 0.035206
940.178000 -0.117359
940.419000 -0.003504
940.660100 0.021615
940.901200 -0.040310
941.142200 -0.141564
941.383300 0.317350
941.624400 0.216781
941.865500 0.338419
942.106600 0.872506
942.347700 -0.161969
942.588900 0.296685
942.830000 -0.234626
943.071100 -0.121223
943.312300 -0.200706
943.553400 0.298957
943.794600 0.092036
944.035700 0.517710
944.276900 -0.162968
944.518100 -0.156175
944.759300 0.500661
945.000500 -0.108138
945.241700 0.252427
945.482900 0.136366
945.724100 0.336499
945.965300 0.051057
946.206600 -0.244668
946.447800 -0.135324
946.689100 -0.054592
946.930300 -0.476090
947.171600 0.312826
947.412800 0.621206
947.654100 -0.151112
947.895400 0.123011
948.136700 0.231760
948.378000 -0.421324
948.619300 -0.095228
948.860600 0.741543
949.101900 0.216571
949.343300 -0.076593
949.584600 0.254980
949.825900 0.213849
950.067300 0.413983
950.308600 0.274323
950.550000 0.087910
950.791400 0.214573
951.032700 2.872739
951.274100 -0.084865
951.515500 -0.040994
951.756900 0.308268
951.998300 0.082753
952.239800 -0.018474
952.481200 -0.223790
952.722600 -0.180052
952.964000 0.158397
953.205500 -0.162968
953.446900 -0.243389
953.688400 -0.209459
953.929900 0.343178
954.171300 -1.164655
954.412800 -0.230707
954.654300 0.260200
954.895800 -0.197214
955.137300 -0.309421
955.378800 0.233412
955.620300 2.896526
955.861800 0.173725
956.103400 -0.037017
956.344900 0.278475
956.586500 0.158265
956.828000 0.510746
957.069600 -0.107570
957.311100 -0.183222
957.552700 0.549141
957.794300 0.664635
958.035900 0.289878
958.277500 -0.341775
958.519100 0.149915
958.760700 0.298726
959.002300 2.632457
959.243900 -0.091726
959.485600 1.010070
959.727200 -0.000308
959.968800 -0.037614
960.210500 0.241615
960.452200 2.840733
960.693800 -0.128197
960.935500 -3.129690
961.177200 0.579139
961.418900 2.653213
961.660600 0.289759
961.902300 0.624413
962.144000 -0.348995
962.385700 -0.272018
962.627400 0.043764
962.869200 0.036284
963.110900 -0.009367
963.352700 -0.289584
963.594400 0.136192
963.836200 0.053605
964.077900 -0.084893
964.319700 0.376440
964.561500 0.048462
964.803300 3.139249
965.045100 -0.373354
965.286900 2.791691
965.528700 -0.037827
965.770500 0.926907
966.012300 -0.460209
966.254200 0.267944
966.496000 -0.619148
966.737900 0.487495
966.979700 -0.048375
967.221600 -0.245397
967.463400 -0.083511
967.705300 0.015885
967.947200 -0.283276
968.189100 2.510545
968.431000 0.496814
968.672900 0.384396
968.914800 0.597225
969.156700 -0.039543
969.398700 0.213479
969.640600 -0.568068
969.882500 0.050329
970.124500 -0.480190
970.366400 0.587301
970.608400 -0.125528
970.850400 0.027070
971.092300 0.063052
971.334300 -0.405512
971.576300 -0.770425
971.818300 0.179067
972.060300 0.973053
972.302300 0.037537
972.544300 -0.268184
972.786400 0.337003
973.028400 -0.121350
973.270400 0.159551
973.512500 0.228728
973.754500 0.534963
973.996600 -0.106646
974.238700 1.011429
974.480700 0.420729
974.722800 0.176238
974.964900 0.394356
975.207000 0.239482
975.449100 -0.515242
975.691200 -0.127756
975.933300 2.853698
976.175500 -3.180699
976.417600 -0.135804
976.659700 3.082785
976.901900 0.143081
977.144000 0.091164
977.386200 -0.334106
977.628300 1.135277
977.870500 3.139249
978.112700 -0.089586
978.354900 2.775974
978.597100 0.542922
978.839300 0.631638
979.081500 3.115278
979.323700 -1.908485
979.565900 0.303865
979.808200 0.149679
980.050400 0.204326
980.292600 -0.201451
980.534900 -0.245321
980.777100 -0.296834
981.019400 -0.489973
981.261700 3.201124
981.504000 0.521519
981.746200 -0.907718
981.988500 -0.065923
982.230800 1.550228
982.473100 0.393227
982.715500 0.261842
982.957800 0.581857
983.200100 0.557370
983.442400 2.610660
983.684800 -0.239677
983.927100 -0.055540
984.169500 0.341974
984.411800 0.061814
984.654200 2.760422
984.896600 0.507598
985.139000 -1.471119
985.381400 0.492773
985.623800 0.282503
985.866200 -0.247523
986.108600 0.000000
986.351000 0.187358
986.593400 -0.288364
986.835800 0.459655
987.078300 0.523783
987.320700 -0.081499
987.563200 -0.035693
987.805600 -0.783684
988.048100 3.189209
988.290600 -0.477121
988.533100 0.000000
988.775600 0.278890
989.018000 3.115278
989.260500 3.086360
989.503100 0.000000
989.745600 0.215367
989.988100 -3.115611
990.230600 -0.003799
990.473200 0.136167
990.715700 0.762134
990.958200 -0.212650
991.200800 -0.190432
991.443400 0.000000
991.685900 -0.192429
991.928500 -3.047275
992.171100 -1.010135
992.413700 3.125806
992.656300 0.148409
992.898900 0.146956
993.141500 0.187477
993.384100 0.399389
993.626700 0.071756
993.869400 2.760422
994.112000 0.647817
994.354700 -0.033413
994.597300 0.094688
994.840000 -1.591065
995.082600 -0.599174
995.325300 -0.905128
995.568000 2.884795
995.810700 -0.592226
996.053400 0.164719
996.296100 -0.244145
996.538800 0.323638
996.781500 0.386524
997.024200 -0.778151
997.267000 0.108644
997.509700 3.186674
997.752400 2.768638
997.995200 0.148606
998.237900 2.701568
998.480700 -0.424499
998.723500 -2.701568
998.966200 0.638105
999.209000 -2.890980
999.451800 3.003891
999.694600 -0.167131
999.937400 2.318063
1000.180200 0.249583
1000.423000 0.577657
1000.665900 -0.379629
1000.908700 -0.642818
1001.151500 2.727541
1001.394400 0.655170
1001.637200 3.078457
1001.880100 0.778151
1002.123000 -0.145769
1002.365800 -0.240850
1002.608700 2.357935
1002.851600 2.913284
1003.094500 3.086360
1003.337400 -0.332744
1003.580300 -2.269513
1003.823200 2.414973
1004.066100 -0.291583
1004.309100 0.169103
1004.552000 -0.323838
1004.794900 -0.108596
1005.037900 0.507154
1005.280800 -0.021189
1005.523800 -0.113330
1005.766700 0.082336
1006.009700 0.016675
1006.252700 -2.158362
1006.495700 -0.349352
1006.738700 -2.158362
1006.981700 3.136086
1007.224700 2.653213
1007.467700 -0.566588
1007.710700 -0.525743
1007.953800 0.132869
1008.196800 1.145332
1008.439800 -0.207774
1008.682900 0.092082
1008.925900 0.779541
1009.169000 2.884229
1009.412100 -3.301464
1009.655100 -1.228944
1009.898200 0.094968
1010.141300 0.000000
1010.384400 0.489091
1010.627500 -0.543893
1010.870600 0.199103
1011.113700 1.077760
1011.356800 0.354819
1011.600000 -1.145332
1011.843100 -0.073804
1012.086300 -2.269513
1012.329400 -0.105847
1012.572600 -3.079181
1012.815700 -0.619217
1013.058900 0.000000
1013.302100 3.003891
1013.545200 -0.140457
1013.788400 -0.047716
1014.031600 0.000000
1014.274800 0.044582
1014.518000 3.161967
1014.761300 -0.179636
1015.004500 -2.465383
1015.247700 0.005009
1015.490900 -2.784617
1015.734200 0.538232
1015.977400 2.450249
1016.220700 0.000000
1016.464000 -0.071706
1016.707200 2.190332
1016.950500 -0.842755
1017.193800 0.818043
1017.437100 0.403930
1017.680400 0.827064
1017.923700 1.720619
1018.167000 0.512393
1018.410300 -0.457951
1018.653600 0.011267
1018.896900 3.021603
1019.140300 -0.150504
1019.383600 2.662758
1019.627000 -0.164759
1019.870300 2.465383
1020.113700 0.633326
1020.357100 -0.587078
1020.600400 0.117302
1020.843800 3.090258
1021.087200 3.287130
1021.330600 -3.143015
1021.574000 0.179797
1021.817400 0.000000
1022.060800 -3.004321
1022.304200 0.000000
1022.547700 0.182672
1022.791100 2.432969
1023.034500 -0.397137
