# Wavelength	Absorbance
197.780200 0.265738
197.984200 2.907949
198.188200 3.093772
198.392200 2.682145
198.596300 0.805173
198.800300 2.318063
199.004400 -0.001569
199.208500 2.866287
199.412600 -0.321943
199.616800 2.768638
199.820900 -0.147401
200.025100 2.877947
200.229200 -0.477618
200.433400 0.333739
200.637600 0.776592
200.841800 -0.089223
201.046100 -0.347043
201.250300 0.529918
201.454600 0.185062
201.658900 3.051153
201.863100 0.053246
202.067400 -0.061091
202.271800 0.162823
202.476100 2.896526
202.680500 -0.092754
202.884800 2.980458
203.089200 0.494299
203.293600 0.688170
203.498000 -0.311249
203.702400 2.336460
203.906900 -1.231290
204.111300 0.000000
204.315800 2.728354
204.520300 1.585837
204.724800 0.135925
204.929300 -0.086674
205.133800 -0.113863
205.338400 1.865959
205.543000 3.171434
205.747500 0.230359
205.952100 2.791691
206.156700 -0.112120
206.361400 -2.981819
206.566000 2.187521
206.770600 3.168203
206.975300 0.164132
207.180000 -1.497325
207.384700 -0.046766
207.589400 -2.861534
207.794100 2.480007
207.998900 0.170428
208.203600 3.152288
208.408400 0.109277
208.613200 2.820201
208.818000 -0.402083
209.022800 2.414973
209.227600 -0.077426
209.432500 2.907949
209.637300 2.752816
209.842200 -0.513069
210.047100 2.798651
210.252000 2.053078
210.456900 0.224825
210.661800 3.055378
210.866800 0.449690
211.071800 3.104487
211.276700 0.161314
211.481700 -0.161231
211.686700 0.180671
211.891800 2.480007
212.096800 0.245296
212.301800 2.890421
212.506900 3.209783
212.712000 2.965672
212.917100 3.226342
213.122200 2.866287
213.327300 3.220892
213.532500 -2.941511
213.737600 -0.105537
213.942800 1.447158
214.148000 -0.043417
214.353200 0.000000
214.558400 -0.119743
214.763600 0.323778
214.968900 -0.194437
215.174100 0.686186
215.379400 -2.762679
215.584700 0.428654
215.790000 1.164270
215.995300 0.185724
216.200700 0.837697
216.406000 0.172029
216.611400 2.587711
216.816800 2.833784
217.022200 2.621176
217.227600 0.743937
217.433000 -0.490383
217.638400 0.075072
217.843900 0.134856
218.049400 -3.000434
218.254800 0.312712
218.460300 3.008600
218.665900 0.596724
218.871400 0.621733
219.076900 0.260365
219.282500 0.075020
219.488100 0.564401
219.693600 2.783904
219.899200 3.267641
220.104900 3.055378
220.310500 -0.604316
220.516100 0.000000
220.721800 0.197295
220.927500 -0.019818
221.133200 0.053198
221.338900 2.902003
221.544600 -0.105353
221.750300 3.183555
221.956100 2.907411
222.161800 2.338456
222.367600 2.913284
222.573400 2.643453
222.779200 -2.589950
222.985000 0.000000
223.190900 0.143549
223.396700 2.621176
223.602600 -0.480483
223.808500 1.782154
224.014400 -0.098610
224.220300 2.935507
224.426200 -0.619921
224.632200 2.727541
224.838100 -0.249773
225.044100 2.653213
225.250100 -0.084249
225.456100 2.653213
225.662100 0.575552
225.868100 2.127105
226.074200 -0.367977
226.280200 0.000000
226.486300 -0.171329
226.692400 -2.382017
226.898500 0.802550
227.104600 -0.435508
227.310700 0.365300
227.516900 2.833784
227.723000 -0.910529
227.929200 3.252853
228.135400 -0.138701
228.341600 0.009430
228.547800 3.108227
228.754100 0.661468
228.960300 -0.926798
229.166600 -3.196176
229.372900 0.252810
229.579100 0.231261
229.785500 0.061716
229.991800 -1.867552
230.198100 2.682145
230.404500 -0.166546
230.610800 -0.236658
230.817200 -3.083503
231.023600 0.277637
231.230000 2.683047
231.436400 0.125347
231.642900 2.718502
231.849300 -0.117330
232.055800 -0.646538
232.262300 0.981270
232.468800 -0.982470
232.675300 0.218694
232.881800 0.892313
233.088400 0.326774
233.294900 -0.583311
233.501500 -0.348905
233.708100 -3.026942
233.914700 -0.137842
234.121300 -2.930949
234.327900 -0.058355
234.534600 2.682145
234.741300 3.097604
234.947900 -0.290545
235.154600 3.406199
235.361300 3.122544
235.568000 3.022016
235.774800 -0.515644
235.981500 0.180276
236.188300 0.000000
236.395100 0.090545
236.601800 -1.857332
236.808700 0.267219
237.015500 2.961421
237.222300 0.178837
237.429200 3.265290
237.636000 0.024685
237.842900 1.851258
238.049800 -0.157357
238.256700 2.653213
238.463600 0.580460
238.670600 1.493690
238.877500 0.231018
239.084500 0.000000
239.291500 0.328715
239.498500 2.245513
239.705500 2.643453
239.912500 -1.308107
240.119500 -1.377990
240.326600 -0.556303
240.533700 -2.981819
240.740700 0.169390
240.947800 1.021856
241.154900 0.150164
241.362100 3.108227
241.569200 2.632457
241.776400 2.999131
241.983500 -0.412273
242.190700 0.100975
242.397900 -2.565848
242.605100 2.537819
242.812400 2.587711
243.019600 0.260474
243.226900 2.710117
243.434100 0.323334
243.641400 2.736397
243.848700 0.670415
244.056000 -1.477121
244.263400 -0.001926
244.470700 0.370136
244.678100 -0.057767
244.885400 1.088136
245.092800 -0.458049
245.300200 2.357935
245.507600 0.105475
245.715100 0.551755
245.922500 0.117104
246.130000 1.230449
246.337500 3.183555
246.544900 -0.566170
246.752400 3.362859
246.960000 0.713458
247.167500 0.273862
247.375000 0.000000
247.582600 3.025715
247.790200 1.845098
247.997800 -0.057787
248.205400 0.455390
248.413000 -0.036282
248.620600 -0.121263
248.828300 0.317905
249.035900 0.547726
249.243600 -0.052976
249.451300 1.805274
249.659000 0.893714
249.866700 0.375111
250.074500 3.226342
250.282200 0.237182
250.490000 -0.038717
250.697800 0.716622
250.905600 -0.482362
251.113400 1.975687
251.321200 2.736397
251.529000 2.008600
251.736900 3.177536
251.944700 3.186674
252.152600 0.496497
252.360500 0.411264
252.568400 -0.083876
252.776300 -0.314710
252.984300 -0.060366
253.192200 2.985426
253.400200 -0.065431
253.608200 2.599883
253.816200 0.373375
254.024200 0.197878
254.232200 2.414973
254.440200 -2.342423
254.648300 -0.432566
254.856400 2.701568
255.064400 2.775974
255.272500 0.334926
255.480600 0.086544
255.688800 0.000000
255.896900 0.099246
256.105100 0.249052
256.313200 2.752816
256.521400 0.314152
256.729600 0.218180
256.937800 3.171434
257.146000 0.419129
257.354300 -2.250420
257.562500 1.008220
257.770800 -2.342423
257.979100 -0.065917
258.187400 2.833784
258.395700 -0.057408
258.604000 0.421845
258.812400 -0.186773
259.020700 1.057642
259.229100 0.347138
259.437500 2.975891
259.645900 0.138062
259.854300 2.878522
260.062700 3.125481
260.271100 2.621176
260.479600 -0.092727
260.688100 -0.564488
260.896500 0.311342
261.105000 -0.208948
261.313500 -0.053685
261.522100 3.142702
261.730600 -0.006347
261.939200 -0.061111
262.147700 2.989895
262.356300 -0.236744
262.564900 -0.372462
262.773500 0.099876
262.982200 0.816365
263.190800 0.000000
263.399500 1.729705
263.608100 3.039017
263.816800 -0.189905
264.025500 -0.193750
264.234200 -0.893947
264.442900 -0.693556
264.651700 3.097604
264.860400 -0.278754
265.069200 1.193820
265.278000 2.990339
265.486800 -0.190243
265.695600 2.450249
265.904400 0.385004
266.113300 -0.235173
266.322100 0.228277
266.531000 1.340224
266.739900 2.294466
266.948800 -0.014387
267.157700 -0.133489
267.366600 3.055378
267.575500 0.316467
267.784500 2.550228
267.993500 -0.049391
268.202400 0.224177
268.411400 0.346742
268.620500 -0.248275
268.829500 0.082247
269.038500 -0.175001
269.247600 -0.192325
269.456600 2.008600
269.665700 -0.102514
269.874800 0.177437
270.083900 0.202963
270.293100 0.000000
270.502200 -0.056335
270.711400 2.127105
270.920500 2.833784
271.129700 0.163913
271.338900 0.217983
271.548100 2.691965
271.757300 -0.264712
271.966600 0.196694
272.175800 3.277609
272.385100 3.132580
272.594400 -0.201499
272.803700 3.021603
273.013000 2.799341
273.222300 0.022554
273.431600 3.165244
273.641000 0.757997
273.850400 2.701568
274.059700 -0.213907
274.269100 3.209515
274.478500 0.532550
274.688000 0.242043
274.897400 -0.151997
275.106900 -0.116506
275.316300 0.054944
275.525800 0.648770
275.735300 0.000000
275.944800 0.045549
276.154300 -0.186047
276.363900 -0.153297
276.573400 -0.090843
276.783000 0.399824
276.992600 -0.319179
277.202200 3.047275
277.411800 2.587711
277.621400 2.727541
277.831000 3.118595
278.040700 3.177536
278.250300 2.820201
278.460000 -0.006004
278.669700 2.980458
278.879400 -0.345182
279.089100 1.737723
279.298900 2.929930
279.508600 -0.283062
279.718400 1.142436
279.928100 0.000000
280.137900 0.437222
280.347700 -0.329912
280.557600 0.662093
280.767400 3.039017
280.977200 0.023352
281.187100 -2.941511
281.397000 0.747482
281.606900 -2.962369
281.816800 0.669415
282.026700 -0.297204
282.236600 2.935003
282.446600 2.924279
282.656500 0.000000
282.866500 2.791691
283.076500 0.481124
283.286500 3.115278
283.496500 0.834700
283.706500 2.907411
283.916600 2.866287
284.126600 -1.453755
284.336700 0.057121
284.546800 -0.233803
284.756900 -0.127490
284.967000 0.766192
285.177100 -0.379949
285.387300 -2.195900
285.597400 3.017033
285.807600 -0.746797
286.017800 0.109838
286.228000 -1.968483
286.438200 0.516295
286.648400 2.940516
286.858700 -0.056723
287.068900 2.760422
287.279200 -0.337452
287.489500 0.446490
287.699800 1.028631
287.910100 2.621176
288.120400 0.317301
288.330800 -0.824040
288.541100 0.812624
288.751500 -0.809458
288.961900 0.158443
289.172300 0.000000
289.382700 -0.045099
289.593100 0.782950
289.803500 -2.793092
290.014000 0.250484
290.224500 1.351614
290.434900 0.000000
290.645400 0.441481
290.855900 2.653213
291.066500 3.146128
291.277000 -0.117241
291.487500 2.768638
291.698100 2.768638
291.908700 -0.788324
292.119300 3.059185
292.329900 3.042969
292.540500 0.310052
292.751100 -0.104152
292.961800 0.000000
293.172400 0.658216
293.383100 -2.920123
293.593800 2.994757
293.804500 2.495544
294.015200 0.497584
294.226000 -2.729974
294.436700 -0.544068
294.647500 2.866287
294.858200 0.267281
295.069000 3.055378
295.279800 2.736397
295.490600 0.000000
295.701500 0.384323
295.912300 0.952452
296.123200 0.469577
296.334000 1.765089
296.544900 3.316809
296.755800 3.220892
296.966700 2.872156
297.177700 2.945961
297.388600 0.099947
297.599500 -0.671998
297.810500 0.360284
298.021500 3.149219
298.232500 0.103331
298.443500 1.690196
298.654500 0.037343
298.865600 3.125806
299.076600 -0.490726
299.287700 0.000000
299.498800 0.228921
299.709900 2.902003
299.921000 3.234517
300.132100 3.038620
300.343200 3.270446
300.554400 2.769377
300.765500 -0.020203
300.976700 -1.968483
301.187900 2.150245
301.399100 2.813581
301.610300 0.085220
301.821500 1.022316
302.032800 0.255682
302.244100 3.017451
302.455300 0.053457
302.666600 -0.083415
302.877900 3.226342
303.089200 2.357935
303.300600 0.619833
303.511900 0.628389
303.723300 0.177645
303.934600 2.884795
304.146000 -1.744852
304.357400 2.432969
304.568800 -0.162496
304.780300 3.192289
304.991700 2.784617
305.203100 2.271842
305.414600 0.226179
305.626100 0.237561
305.837600 0.782823
306.049100 0.082247
306.260600 0.376291
306.472200 -0.004907
306.683700 -0.122225
306.895300 -0.322439
307.106900 0.556863
307.318400 3.034628
307.530100 0.279318
307.741700 2.806180
307.953300 0.880450
308.165000 0.000000
308.376600 0.009294
308.588300 0.464142
308.800000 3.034227
309.011700 3.215109
309.223400 -0.014387
309.435100 1.496007
309.646900 -0.235806
309.858600 1.577875
310.070400 3.129045
310.282200 -1.227703
310.494000 0.114819
310.705800 1.691081
310.917600 -0.154668
311.129500 0.061955
311.341300 3.296446
311.553200 3.180413
311.765100 3.139249
311.977000 1.012368
312.188900 0.287487
312.400800 3.030600
312.612700 0.177781
312.824700 1.814913
313.036600 0.446316
313.248600 3.332034
313.460600 -0.153639
313.672600 0.256797
313.884600 3.086360
314.096700 -0.759763
314.308700 0.935632
314.520800 3.104828
314.732800 3.402777
314.944900 3.146128
315.157000 3.362859
315.369200 1.375215
315.581300 3.082785
315.793400 2.653213
316.005600 0.263973
316.217700 0.825780
316.429900 3.525174
316.642100 3.168203
316.854300 0.503822
317.066600 0.641932
317.278800 3.417139
317.491100 0.045541
317.703300 3.336260
317.915600 1.819325
318.127900 3.445760
318.340200 3.097604
318.552500 0.642489
318.764900 3.139249
318.977200 0.324652
319.189600 0.899861
319.401900 0.565789
319.614300 -0.040538
319.826700 0.343484
320.039200 0.438763
320.251600 3.303412
320.464000 3.336260
320.676500 0.212981
320.889000 2.465383
321.101400 0.439868
321.313900 0.309834
321.526500 0.619173
321.739000 0.583485
321.951500 3.472903
322.164100 -0.113180
322.376600 3.460447
322.589200 0.822530
322.801800 0.565089
323.014400 3.360972
323.227000 0.624902
323.439700 3.437433
323.652300 0.881342
323.865000 1.897627
324.077700 0.585905
324.290400 3.310268
324.503100 3.378580
324.715800 0.809205
324.928500 1.295363
325.141200 0.729036
325.354000 0.443572
325.566800 3.389875
325.779600 0.590478
325.992400 3.314710
326.205200 3.542576
326.418000 2.520119
326.630800 0.639983
326.843700 1.069301
327.056600 0.217736
327.269400 0.686999
327.482300 3.531990
327.695200 0.404145
327.908200 0.814668
328.121100 3.453930
328.334000 3.554126
328.547000 1.096359
328.760000 0.847562
328.973000 3.578983
329.186000 0.612003
329.399000 1.588583
329.612000 0.568921
329.825100 3.485153
330.038100 1.235681
330.251200 3.572872
330.464300 1.045514
330.677400 0.888850
330.890500 0.878117
331.103600 0.640542
331.316700 0.495222
331.529900 1.023820
331.743100 1.101005
331.956200 3.661339
332.169400 3.577836
332.382600 0.600753
332.595900 0.758781
332.809100 3.604766
333.022300 0.577322
333.235600 0.886834
333.448900 0.579323
333.662200 3.609381
333.875500 0.553391
334.088800 3.518251
334.302100 0.788213
334.515400 0.428029
334.728800 0.573685
334.942200 3.626956
335.155500 0.536093
335.368900 0.572457
335.582300 0.678509
335.795800 0.828163
336.009200 0.553492
336.222700 0.936263
336.436100 0.585064
336.649600 1.665616
336.863100 3.676053
337.076600 3.787035
337.290100 1.490968
337.503600 3.672098
337.717200 3.759290
337.930700 0.861182
338.144300 0.654256
338.357900 3.656290
338.571500 1.416816
338.785100 0.817279
338.998700 0.543554
339.212400 1.202528
339.426000 0.781195
339.639700 1.536932
339.853300 0.904060
340.067000 0.919874
340.280700 3.765594
340.494500 1.447651
340.708200 1.205214
340.921900 3.796644
341.135700 1.081192
341.349500 0.565132
341.563300 0.530919
341.777100 0.791152
341.990900 0.982361
342.204700 0.560047
342.418500 2.161662
342.632400 0.888949
342.846300 1.184025
343.060100 3.693023
343.274000 0.904913
343.487900 3.871748
343.701900 1.937852
343.915800 0.907095
344.129700 0.911242
344.343700 0.702095
344.557700 2.409708
344.771700 0.960890
344.985700 0.854182
345.199700 0.914361
345.413700 3.908914
345.627700 3.783332
345.841800 3.870521
346.055900 3.854124
346.269900 1.900161
346.484000 3.898615
346.698100 0.612168
346.912300 1.120366
347.126400 0.996991
347.340600 3.899164
347.554700 3.883264
347.768900 3.886321
347.983100 2.464936
348.197300 3.889246
348.411500 0.804959
348.625700 1.276810
348.840000 1.930133
349.054200 3.926085
349.268500 1.222915
349.482800 3.888011
349.697100 1.622781
349.911400 3.877832
350.125700 0.901120
350.340000 3.937869
350.554400 0.993798
350.768700 3.912806
350.983100 0.955451
351.197500 1.015344
351.411900 3.984437
351.626300 2.247347
351.840700 1.127976
352.055200 1.366118
352.269600 1.110666
352.484100 3.950851
352.698600 3.035830
352.913100 1.413983
353.127600 0.727116
353.342100 3.948266
353.556600 3.994713
353.771200 1.625517
353.985800 1.108587
354.200300 1.237171
354.414900 1.599076
354.629500 3.907143
354.844100 1.031904
355.058800 1.241904
355.273400 1.136313
355.488100 1.607121
355.702700 1.000222
355.917400 0.688012
356.132100 4.015527
356.346800 3.982000
356.561500 1.349226
356.776300 1.631905
356.991000 1.210800
357.205800 1.165750
357.420600 0.774684
357.635300 0.855264
357.850100 1.719764
358.065000 3.991935
358.279800 3.980549
358.494600 3.959995
358.709500 0.810936
358.924300 0.694993
359.139200 0.848884
359.354100 1.114301
359.569000 4.007534
359.783900 3.987264
359.998900 1.417134
360.213800 1.088998
360.428800 1.090799
360.643800 0.588221
360.858700 1.214312
361.073700 1.741195
361.288800 0.801593
361.503800 1.436502
361.718800 0.841991
361.933900 4.009323
362.148900 4.016866
362.364000 1.232034
362.579100 4.062845
362.794200 0.904343
363.009300 4.072250
363.224500 1.517989
363.439600 4.024280
363.654800 2.066506
363.869900 1.334437
364.085100 1.001662
364.300300 1.058373
364.515500 1.096794
364.730800 1.018697
364.946000 4.055608
365.161200 0.928410
365.376500 1.095134
365.591800 1.541587
365.807100 1.890069
366.022400 1.443664
366.237700 4.078022
366.453000 1.552714
366.668400 4.089375
366.883700 1.721211
367.099100 1.191696
367.314500 1.411107
367.529900 1.769109
367.745300 1.601460
367.960700 1.499426
368.176100 4.093071
368.391600 1.227949
368.607000 1.021365
368.822500 1.318809
369.038000 1.899753
369.253500 4.100405
369.469000 0.927545
369.684500 1.184666
369.900100 1.404153
370.115600 1.023778
370.331200 4.097847
370.546800 2.626888
370.762400 1.679479
370.978000 1.433129
371.193600 1.103916
371.409200 2.417227
371.624900 2.030375
371.840500 4.181129
372.056200 1.399587
372.271900 1.407401
372.487600 0.929276
372.703300 0.778312
372.919000 4.120278
373.134800 1.941771
373.350500 1.224614
373.566300 0.908878
373.782000 1.398030
373.997800 4.169498
374.213600 4.167937
374.429400 4.167613
374.645300 1.356102
374.861100 1.684444
375.077000 1.094091
375.292800 1.273308
375.508700 4.212241
375.724600 1.183644
375.940500 1.150218
376.156400 1.206171
376.372400 2.112034
376.588300 1.182837
376.804300 4.234720
377.020300 1.412524
377.236200 1.079925
377.452200 1.287998
377.668200 2.554050
377.884300 1.530383
378.100300 4.253265
378.316400 1.751550
378.532400 4.271028
378.748500 4.301356
378.964600 1.722503
379.180700 1.377445
379.396800 1.496675
379.612900 1.895844
379.829100 4.308394
380.045200 1.145566
380.261400 1.537840
380.477600 4.319085
380.693800 1.100900
380.910000 4.341138
381.126200 1.674391
381.342400 1.399836
381.558700 1.122705
381.774900 1.946184
381.991200 4.304318
382.207500 4.314668
382.423800 1.226114
382.640100 4.341553
382.856400 1.611361
383.072800 1.511967
383.289100 4.351042
383.505500 1.267272
383.721900 0.979005
383.938200 1.137528
384.154600 1.831882
384.371100 4.337779
384.587500 1.348357
384.803900 4.366890
385.020400 1.373690
385.236800 4.356332
385.453300 1.719170
385.669800 4.340702
385.886300 4.360745
386.102800 4.360120
386.319400 4.354512
386.535900 4.371972
386.752500 1.567067
386.969000 1.284170
387.185600 2.885003
387.402200 1.247005
387.618800 4.400573
387.835500 2.427873
388.052100 4.417721
388.268700 2.928532
388.485400 1.789976
388.702100 1.331404
388.918800 1.318879
389.135500 4.421044
389.352200 1.234249
389.568900 2.188525
389.785600 1.537466
390.002400 1.655221
390.219200 1.241460
390.435900 2.214928
390.652700 1.307775
390.869500 4.427064
391.086300 1.220348
391.303200 1.499867
391.520000 1.297529
391.736900 1.601945
391.953700 1.333719
392.170600 1.623514
392.387500 1.134959
392.604400 1.490346
392.821300 1.123972
393.038300 1.546814
393.255200 0.975964
393.472200 1.199350
393.689100 0.998558
393.906100 1.374014
394.123100 0.921121
394.340100 1.437056
394.557200 1.104455
394.774200 1.381136
394.991200 1.022474
395.208300 1.179834
395.425400 1.217779
395.642500 1.189169
395.859600 1.299736
396.076700 1.082013
396.293800 0.957655
396.510900 1.241238
396.728100 1.010700
396.945300 1.030590
397.162400 0.930685
397.379600 1.234819
397.596800 1.042297
397.814000 0.942259
398.031300 0.985357
398.248500 0.928586
398.465800 1.115270
398.683000 0.892270
398.900300 0.872808
399.117600 1.135187
399.334900 0.997239
399.552200 0.926854
399.769600 0.865284
399.986900 1.220411
400.204300 0.912625
400.421600 0.939163
400.639000 0.969639
400.856400 1.130990
401.073800 0.894101
401.291200 0.876941
401.508700 0.781381
401.726100 0.813476
401.943600 0.784063
402.161000 0.963137
402.378500 0.881265
402.596000 0.858157
402.813500 0.685125
403.031000 0.838309
403.248600 0.934163
403.466100 0.966448
403.683700 0.669272
403.901300 0.785931
404.118900 0.811248
404.336500 0.720468
404.554100 0.732323
404.771700 0.749790
404.989300 0.706860
405.207000 0.785051
405.424600 0.630398
405.642300 0.656519
405.860000 0.695825
406.077700 0.828560
406.295400 0.803728
406.513100 0.716465
406.730900 0.661529
406.948600 0.721450
407.166400 0.704355
407.384200 0.669410
407.602000 0.604701
407.819800 0.617897
408.037600 0.747988
408.255400 0.657273
408.473300 0.710621
408.691100 0.621939
408.909000 0.641919
409.126900 0.634761
409.344800 0.603978
409.562700 0.534709
409.780600 0.779201
409.998500 0.640103
410.216500 0.555347
410.434400 0.593488
410.652400 0.601997
410.870400 0.586967
411.088400 0.605793
411.306400 0.587742
411.524400 0.596356
411.742400 0.596355
411.960500 0.556564
412.178500 0.595354
412.396600 0.524967
412.614700 0.574359
412.832800 0.558467
413.050900 0.558960
413.269000 0.597391
413.487100 0.533349
413.705300 0.534645
413.923400 0.523957
414.141600 0.530509
414.359800 0.521818
414.578000 0.498785
414.796200 0.517733
415.014400 0.555744
415.232600 0.551300
415.450900 0.505933
415.669200 0.539701
415.887400 0.560720
416.105700 0.490183
416.324000 0.534276
416.542300 0.566742
416.760600 0.482221
416.979000 0.460836
417.197300 0.447885
417.415700 0.417583
417.634100 0.461467
417.852400 0.434591
418.070800 0.485161
418.289300 0.422111
418.507700 0.494337
418.726100 0.448643
418.944600 0.428191
419.163000 0.421135
419.381500 0.413495
419.600000 0.475547
419.818500 0.458435
420.037000 0.436496
420.255500 0.468838
420.474100 0.430094
420.692600 0.453555
420.911200 0.417499
421.129800 0.439757
421.348300 0.446184
421.566900 0.417944
421.785600 0.420427
422.004200 0.379679
422.222800 0.444382
422.441500 0.459927
422.660100 0.416832
422.878800 0.411085
423.097500 0.400502
423.316200 0.411973
423.534900 0.396525
423.753600 0.367191
423.972400 0.364520
424.191100 0.451013
424.409900 0.400517
424.628700 0.408479
424.847500 0.386717
425.066300 0.418653
425.285100 0.365330
425.503900 0.400209
425.722800 0.342200
425.941600 0.387510
426.160500 0.351149
426.379300 0.402166
426.598200 0.368849
426.817100 0.370696
427.036100 0.401988
427.255000 0.406600
427.473900 0.350865
427.692900 0.388968
427.911800 0.415289
428.130800 0.399472
428.349800 0.343939
428.568800 0.361581
428.787800 0.350624
429.006800 0.397487
429.225900 0.335095
429.444900 0.386245
429.664000 0.299705
429.883100 0.371162
430.102200 0.311775
430.321300 0.416750
430.540400 0.367956
430.759500 0.329844
430.978700 0.350662
431.197800 0.369879
431.417000 0.337722
431.636200 0.346473
431.855300 0.332506
432.074500 0.402981
432.293800 0.327808
432.513000 0.368587
432.732200 0.348698
432.951500 0.356463
433.170700 0.363761
433.390000 0.380646
433.609300 0.385601
433.828600 0.338756
434.047900 0.367564
434.267300 0.397237
434.486600 0.339129
434.705900 0.322582
434.925300 0.322375
435.144700 0.316898
435.364100 0.318685
435.583500 0.338726
435.802900 0.331626
436.022300 0.354747
436.241800 0.382328
436.461200 0.351990
436.680700 0.370067
436.900100 0.352931
437.119600 0.324183
437.339100 0.338350
437.558600 0.308695
437.778200 0.315812
437.997700 0.325142
438.217300 0.340149
438.436800 0.346278
438.656400 0.385463
438.876000 0.291869
439.095600 0.324438
439.315200 0.371738
439.534800 0.311575
439.754500 0.316144
439.974100 0.371802
440.193800 0.356821
440.413500 0.329746
440.633100 0.371310
440.852800 0.340517
441.072500 0.338335
441.292300 0.344003
441.512000 0.341494
441.731800 0.345058
441.951500 0.382781
442.171300 0.381335
442.391100 0.354148
442.610900 0.361036
442.830700 0.327651
443.050500 0.329060
443.270300 0.318240
443.490200 0.340405
443.710100 0.350182
443.929900 0.345781
444.149800 0.339943
444.369700 0.376333
444.589600 0.327341
444.809500 0.375559
445.029500 0.343642
445.249400 0.349136
445.469400 0.357842
445.689400 0.364075
445.909300 0.374230
446.129300 0.357171
446.349300 0.353661
446.569400 0.361336
446.789400 0.384312
447.009400 0.363306
447.229500 0.347897
447.449600 0.336697
447.669600 0.319166
447.889700 0.364953
448.109800 0.374711
448.330000 0.333792
448.550100 0.376860
448.770200 0.365648
448.990400 0.385200
449.210600 0.388154
449.430700 0.383295
449.650900 0.353775
449.871100 0.371495
450.091400 0.367033
450.311600 0.398127
450.531800 0.363951
450.752100 0.413372
450.972400 0.359023
451.192600 0.397782
451.412900 0.430022
451.633200 0.367751
451.853500 0.401433
452.073900 0.385963
452.294200 0.416541
452.514600 0.388560
452.734900 0.380124
452.955300 0.392189
453.175700 0.384317
453.396100 0.410480
453.616500 0.400117
453.836900 0.428880
454.057400 0.416941
454.277800 0.435576
454.498300 0.409930
454.718800 0.420776
454.939300 0.430708
455.159700 0.423710
455.380300 0.449985
455.600800 0.384176
455.821300 0.451884
456.041900 0.419857
456.262400 0.413449
456.483000 0.472275
456.703600 0.378951
456.924200 0.448032
457.144800 0.442708
457.365400 0.460315
457.586000 0.479258
457.806700 0.456960
458.027400 0.483658
458.248000 0.519195
458.468700 0.423361
458.689400 0.441751
458.910100 0.463293
459.130800 0.499627
459.351600 0.503544
459.572300 0.489417
459.793100 0.496685
460.013800 0.489020
460.234600 0.511574
460.455400 0.444809
460.676200 0.498024
460.897000 0.490780
461.117800 0.483093
461.338700 0.508788
461.559500 0.485509
461.780400 0.503095
462.001300 0.591333
462.222200 0.452322
462.443100 0.531393
462.664000 0.535723
462.884900 0.491245
463.105900 0.503176
463.326800 0.525657
463.547800 0.541100
463.768700 0.541690
463.989700 0.528155
464.210700 0.525434
464.431700 0.566607
464.652800 0.569561
464.873800 0.535689
465.094800 0.556373
465.315900 0.595784
465.537000 0.593514
465.758100 0.616272
465.979200 0.610843
466.200300 0.577868
466.421400 0.576087
466.642500 0.622284
466.863700 0.600361
467.084800 0.567267
467.306000 0.586723
467.527200 0.645760
467.748400 0.597628
467.969600 0.628731
468.190800 0.628972
468.412000 0.617655
468.633300 0.662131
468.854500 0.704035
469.075800 0.619936
469.297000 0.661284
469.518300 0.646467
469.739600 0.660177
469.961000 0.652004
470.182300 0.672946
470.403600 0.653361
470.625000 0.642724
470.846300 0.627896
471.067700 0.673055
471.289100 0.666375
471.510500 0.638799
471.731900 0.638252
471.953300 0.678961
472.174800 0.682954
472.396200 0.728431
472.617700 0.693551
472.839100 0.745052
473.060600 0.687857
473.282100 0.729826
473.503600 0.680803
473.725100 0.700268
473.946700 0.737023
474.168200 0.718838
474.389800 0.721225
474.611300 0.736321
474.832900 0.742964
475.054500 0.738184
475.276100 0.766263
475.497700 0.778133
475.719300 0.778973
475.941000 0.843031
476.162600 0.798818
476.384300 0.720511
476.606000 0.729916
476.827700 0.775265
477.049400 0.755851
477.271100 0.836454
477.492800 0.768211
477.714500 0.821996
477.936300 0.891324
478.158000 0.882207
478.379800 0.830817
478.601600 0.815848
478.823400 0.829168
479.045200 0.751509
479.267000 0.769006
479.488800 0.786606
479.710700 0.879751
479.932500 0.862862
480.154400 0.881856
480.376300 0.839238
480.598200 0.814972
480.820100 0.838704
481.042000 0.880259
481.263900 0.898226
481.485900 0.897456
481.707800 0.847509
481.929800 0.969210
482.151700 0.921791
482.373700 0.879010
482.595700 0.843431
482.817700 0.860638
483.039800 1.106592
483.261800 0.871801
483.483800 1.013761
483.705900 0.870041
483.928000 1.024184
484.150100 0.905331
484.372100 1.079517
484.594300 0.891817
484.816400 0.862197
485.038500 0.912862
485.260600 0.948929
485.482800 0.923556
485.705000 1.047991
485.927100 1.024628
486.149300 0.993532
486.371500 1.002408
486.593700 0.970226
486.816000 0.984313
487.038200 1.043126
487.260500 1.009181
487.482700 0.947390
487.705000 1.019707
487.927300 0.865380
488.149600 1.014990
488.371900 1.078811
488.594200 1.022433
488.816500 1.090603
489.038900 1.063713
489.261200 1.030389
489.483600 0.964073
489.706000 1.027588
489.928400 0.974677
490.150800 1.116944
490.373200 1.028117
490.595600 1.116936
490.818000 0.985126
491.040500 1.126740
491.263000 1.076301
491.485400 1.181372
491.707900 1.148022
491.930400 1.062525
492.152900 1.080427
492.375500 0.962489
492.598000 1.067148
492.820500 1.154111
493.043100 1.161771
493.265700 1.076301
493.488200 1.078219
493.710800 1.168746
493.933400 0.946409
494.156100 1.140592
494.378700 1.144401
494.601300 1.108494
494.824000 1.055833
495.046600 1.368709
495.269300 0.929980
495.492000 1.269153
495.714700 1.003609
495.937400 1.206168
496.160100 1.099668
496.382900 1.244968
496.605600 1.053791
496.828400 1.048169
497.051100 1.137312
497.273900 1.155378
497.496700 1.091919
497.719500 1.208952
497.942300 1.143696
498.165200 1.176688
498.388000 1.045686
498.610900 1.075320
498.833700 1.344173
499.056600 1.116559
499.279500 1.048356
499.502400 1.273976
499.725300 1.046519
499.948200 1.122621
500.171200 1.081647
500.394100 1.148686
500.617100 1.133223
500.840000 1.318445
501.063000 1.236079
501.286000 1.149561
501.509000 1.038857
501.732000 1.099308
501.955100 1.179396
502.178100 1.081816
502.401200 1.265149
502.624200 1.235853
502.847300 1.279385
503.070400 1.342088
503.293500 1.075380
503.516600 1.424221
503.739700 1.222261
503.962800 1.147575
504.186000 1.239726
504.409200 1.337253
504.632300 1.266737
504.855500 1.294278
505.078700 1.134857
505.301900 1.364789
505.525100 1.207402
505.748300 1.182843
505.971600 1.100251
506.194800 1.282167
506.418100 1.172376
506.641400 1.060300
506.864700 1.209737
507.088000 1.104779
507.311300 1.623433
507.534600 1.222729
507.757900 1.043359
507.981300 1.168840
508.204600 1.108824
508.428000 1.250207
508.651400 1.193441
508.874800 1.225501
509.098200 1.359530
509.321600 1.276747
509.545000 1.171282
509.768500 1.135559
509.991900 1.059636
510.215400 1.342201
510.438800 1.265423
510.662300 1.160492
510.885800 1.224248
511.109300 1.276264
511.332900 1.049497
511.556400 1.191280
511.779900 1.204094
512.003500 1.197849
512.227000 1.271635
512.450600 1.176378
512.674200 1.090240
512.897800 1.254018
513.121400 0.979205
513.345100 1.121479
513.568700 1.136463
513.792300 1.005794
514.016000 1.138573
514.239700 1.239991
514.463400 1.148286
514.687100 1.549568
514.910800 1.010263
515.134500 1.293641
515.358200 1.038313
515.581900 1.175428
515.805700 1.020226
516.029500 1.187383
516.253200 1.181283
516.477000 1.241327
516.700800 1.212411
516.924600 1.146263
517.148500 0.995017
517.372300 1.076908
517.596100 1.017534
517.820000 1.074971
518.043900 1.218530
518.267700 1.154295
518.491600 1.120589
518.715500 1.573192
518.939500 1.055452
519.163400 1.038655
519.387300 1.071651
519.611300 1.158861
519.835200 1.033473
520.059200 1.211709
520.283200 1.366626
520.507200 1.073796
520.731200 1.042186
520.955200 1.078848
521.179200 0.991237
521.403300 1.137941
521.627300 1.013234
521.851400 1.038879
522.075500 0.989306
522.299600 0.916635
522.523700 1.139507
522.747800 0.980244
522.971900 1.021334
523.196000 0.997367
523.420200 0.993454
523.644300 0.954468
523.868500 0.967727
524.092700 0.916629
524.316900 0.988065
524.541100 0.982989
524.765300 1.016659
524.989500 0.991124
525.213800 0.990740
525.438000 0.967418
525.662300 0.876235
525.886500 1.090215
526.110800 1.102130
526.335100 0.963386
526.559400 0.961520
526.783700 0.879433
527.008100 0.931261
527.232400 0.940959
527.456800 1.023825
527.681100 0.927894
527.905500 0.914268
528.129900 1.007771
528.354300 0.969753
528.578700 0.973853
528.803100 0.845601
529.027600 0.787351
529.252000 1.171898
529.476500 0.829784
529.700900 0.933587
529.925400 0.848978
530.149900 0.826338
530.374400 0.901347
530.598900 0.848894
530.823400 0.987204
531.048000 0.857928
531.272500 0.887288
531.497100 0.896725
531.721700 0.729870
531.946200 0.923879
532.170800 0.792858
532.395400 0.889637
532.620000 0.767701
532.844700 0.881825
533.069300 0.751979
533.294000 0.803927
533.518600 0.754929
533.743300 0.790215
533.968000 0.808435
534.192700 0.804001
534.417400 0.740661
534.642100 0.804994
534.866800 0.743618
535.091600 0.809412
535.316300 0.736218
535.541100 0.888244
535.765900 0.666804
535.990700 0.824889
536.215500 0.698838
536.440300 0.734041
536.665100 0.707407
536.889900 0.716962
537.114800 0.695282
537.339600 0.674990
537.564500 0.731365
537.789400 0.711312
538.014300 0.747840
538.239200 0.597516
538.464100 0.682528
538.689000 0.676500
538.913900 0.619242
539.138900 0.681896
539.363800 0.639531
539.588800 0.648126
539.813800 0.744244
540.038800 0.620552
540.263800 0.734031
540.488800 0.681900
540.713800 0.600072
540.938900 0.618392
541.163900 0.638159
541.389000 0.621616
541.614000 0.593713
541.839100 0.563875
542.064200 0.573365
542.289300 0.655256
542.514400 0.586586
542.739600 0.546364
542.964700 0.562101
543.189900 0.668181
543.415000 0.572787
543.640200 0.631881
543.865400 0.594253
544.090600 0.544313
544.315800 0.549001
544.541000 0.530803
544.766200 0.573307
544.991500 0.562463
545.216700 0.536003
545.442000 0.529097
545.667300 0.544085
545.892600 0.527378
546.117900 0.487720
546.343200 0.554068
546.568500 0.519287
546.793800 0.475573
547.019200 0.505556
547.244500 0.541544
547.469900 0.463065
547.695300 0.457860
547.920600 0.463337
548.146000 0.509613
548.371500 0.505945
548.596900 0.471516
548.822300 0.465323
549.047800 0.457378
549.273200 0.457356
549.498700 0.423844
549.724200 0.465931
549.949600 0.453620
550.175100 0.441114
550.400700 0.429624
550.626200 0.422615
550.851700 0.461491
551.077300 0.408045
551.302800 0.398650
551.528400 0.376713
551.754000 0.423438
551.979600 0.434618
552.205200 0.411210
552.430800 0.404362
552.656400 0.378912
552.882000 0.405211
553.107700 0.404869
553.333300 0.406045
553.559000 0.362676
553.784700 0.363863
554.010400 0.401848
554.236100 0.411210
554.461800 0.369399
554.687500 0.373718
554.913200 0.359799
555.139000 0.326309
555.364800 0.316930
555.590500 0.357563
555.816300 0.317440
556.042100 0.313280
556.267900 0.360803
556.493700 0.336309
556.719500 0.300280
556.945400 0.330277
557.171200 0.311148
557.397100 0.295183
557.623000 0.316261
557.848800 0.293614
558.074700 0.292358
558.300600 0.317307
558.526600 0.314449
558.752500 0.278872
558.978400 0.306911
559.204400 0.304554
559.430300 0.284625
559.656300 0.257246
559.882300 0.259292
560.108300 0.290026
560.334300 0.255617
560.560300 0.255802
560.786300 0.279063
561.012400 0.268232
561.238400 0.268735
561.464500 0.250113
561.690500 0.275318
561.916600 0.238752
562.142700 0.232547
562.368800 0.267698
562.594900 0.240295
562.821100 0.252489
563.047200 0.252325
563.273300 0.235780
563.499500 0.199144
563.725700 0.242812
563.951900 0.215661
564.178100 0.248392
564.404300 0.253752
564.630500 0.236209
564.856700 0.206234
565.082900 0.207068
565.309200 0.232633
565.535500 0.212220
565.761700 0.193380
565.988000 0.206907
566.214300 0.197282
566.440600 0.189726
566.666900 0.198446
566.893200 0.192830
567.119600 0.179193
567.345900 0.211718
567.572300 0.198614
567.798700 0.187308
568.025000 0.181424
568.251400 0.189706
568.477800 0.193573
568.704300 0.175077
568.930700 0.188017
569.157100 0.171795
569.383600 0.180106
569.610000 0.177759
569.836500 0.165566
570.063000 0.173844
570.289500 0.180570
570.516000 0.171787
570.742500 0.159069
570.969000 0.169423
571.195600 0.163242
571.422100 0.166749
571.648700 0.160316
571.875200 0.159323
572.101800 0.149049
572.328400 0.164867
572.555000 0.148226
572.781600 0.162096
573.008200 0.159132
573.234900 0.157280
573.461500 0.144656
573.688200 0.139777
573.914900 0.145461
574.141500 0.143738
574.368200 0.135421
574.594900 0.129001
574.821600 0.136629
575.048400 0.144187
575.275100 0.133097
575.501800 0.130907
575.728600 0.122161
575.955400 0.118180
576.182100 0.125487
576.408900 0.123631
576.635700 0.124675
576.862600 0.124319
577.089400 0.121490
577.316200 0.113189
577.543100 0.122884
577.769900 0.119520
577.996800 0.116163
578.223700 0.119123
578.450500 0.115950
578.677400 0.111027
578.904400 0.111813
579.131300 0.100015
579.358200 0.107031
579.585100 0.110029
579.812100 0.106948
580.039100 0.105248
580.266000 0.088848
580.493000 0.098618
580.720000 0.088562
580.947000 0.091096
581.174100 0.092695
581.401100 0.101686
581.628100 0.093589
581.855200 0.091045
582.082200 0.092298
582.309300 0.092370
582.536400 0.086571
582.763500 0.078139
582.990600 0.078300
583.217700 0.076794
583.444900 0.075588
583.672000 0.075370
583.899100 0.073386
584.126300 0.078243
584.353500 0.060094
584.580700 0.077270
584.807900 0.079654
585.035100 0.083022
585.262300 0.085106
585.489500 0.087462
585.716700 0.064347
585.944000 0.077728
586.171300 0.079962
586.398500 0.067338
586.625800 0.076739
586.853100 0.071167
587.080400 0.074688
587.307700 0.061020
587.535000 0.065630
587.762400 0.058087
587.989700 0.066197
588.217100 0.076327
588.444500 0.072826
588.671800 0.062501
588.899200 0.069367
589.126600 0.070520
589.354000 0.062101
589.581500 0.058522
589.808900 0.051917
590.036300 0.058951
590.263800 0.069496
590.491300 0.064817
590.718700 0.039567
590.946200 0.057472
591.173700 0.051024
591.401200 0.058389
591.628800 0.066547
591.856300 0.050091
592.083800 0.048033
592.311400 0.050390
592.538900 0.050510
592.766500 0.059818
592.994100 0.060252
593.221700 0.065337
593.449300 0.052866
593.676900 0.045394
593.904600 0.069293
594.132200 0.051234
594.359800 0.060433
594.587500 0.066111
594.815200 0.045654
595.042900 0.068813
595.270500 0.057790
595.498300 0.051075
595.726000 0.052743
595.953700 0.045253
596.181400 0.038216
596.409200 0.039750
596.636900 0.053542
596.864700 0.065596
597.092500 0.046352
597.320300 0.049573
597.548100 0.054756
597.775900 0.055559
598.003700 0.046034
598.231500 0.042118
598.459400 0.044129
598.687200 0.054653
598.915100 0.055438
599.143000 0.047331
599.370900 0.055829
599.598800 0.041146
599.826700 0.042467
600.054600 0.051165
600.282500 0.047559
600.510500 0.045068
600.738400 0.033849
600.966400 0.035433
601.194400 0.034970
601.422300 0.033889
601.650300 0.024257
601.878300 0.038878
602.106400 0.046362
602.334400 0.038908
602.562400 0.036893
602.790500 0.045273
603.018500 0.030723
603.246600 0.039624
603.474700 0.031288
603.702800 0.036779
603.930900 0.038985
604.159000 0.033432
604.387100 0.049445
604.615200 0.041153
604.843400 0.034044
605.071500 0.032379
605.299700 0.032464
605.527900 0.030536
605.756100 0.024097
605.984300 0.026197
606.212500 0.028614
606.440700 0.018178
606.668900 0.019657
606.897200 0.019571
607.125400 0.027222
607.353700 0.028656
607.581900 0.036140
607.810200 0.024410
608.038500 0.024807
608.266800 0.022172
608.495100 0.016244
608.723500 0.008424
608.951800 0.029640
609.180100 0.017147
609.408500 0.019708
609.636900 0.029447
609.865300 0.034249
610.093600 0.034358
610.322000 0.039970
610.550500 0.025424
610.778900 0.019203
611.007300 0.016210
611.235700 0.035459
611.464200 0.042370
611.692700 0.024017
611.921100 0.020102
612.149600 0.039786
612.378100 0.025699
612.606600 0.031282
612.835100 0.024992
613.063700 0.018668
613.292200 0.020958
613.520800 0.012186
613.749300 0.017518
613.977900 0.031460
614.206500 0.017960
614.435100 0.026428
614.663700 0.018812
614.892300 0.024642
615.120900 0.023617
615.349500 0.038657
615.578200 0.025270
615.806800 0.015636
616.035500 0.017996
616.264200 0.029019
616.492900 0.023755
616.721600 0.019117
616.950300 0.014988
617.179000 0.017846
617.407700 0.022994
617.636500 0.012297
617.865200 0.026775
618.094000 0.023802
618.322700 0.016856
618.551500 0.000815
618.780300 -0.000112
619.009100 0.013550
619.237900 0.022166
619.466700 0.015764
619.695600 0.013526
619.924400 0.010281
620.153300 0.023700
620.382100 0.013176
620.611000 0.000510
620.839900 -0.005111
621.068800 0.005493
621.297700 0.009331
621.526600 0.025262
621.755600 0.017734
621.984500 0.018348
622.213500 0.011079
622.442400 0.014844
622.671400 0.026388
622.900400 -0.002075
623.129400 0.018231
623.358400 0.008621
623.587400 0.004590
623.816400 0.004399
624.045400 0.031529
624.274500 0.018439
624.503500 0.001853
624.732600 0.008856
624.961700 0.020327
625.190800 0.007312
625.419900 -0.002318
625.649000 0.015254
625.878100 0.000053
626.107200 -0.005572
626.336400 0.026653
626.565500 0.022868
626.794700 0.026645
627.023800 0.007578
627.253000 0.017514
627.482200 0.009691
627.711400 0.012040
627.940600 0.012333
628.169800 0.006059
628.399100 0.008844
628.628300 0.025568
628.857600 -0.017051
629.086800 0.012877
629.316100 0.007426
629.545400 0.011638
629.774700 0.008748
630.004000 0.023005
630.233300 0.013466
630.462600 0.004417
630.692000 -0.009126
630.921300 0.005354
631.150700 0.011104
631.380100 0.006192
631.609400 0.003944
631.838800 0.016213
632.068200 0.012599
632.297600 0.009364
632.527100 0.003004
632.756500 0.015448
632.985900 -0.006037
633.215400 0.019361
633.444800 0.022454
633.674300 0.013407
633.903800 0.008950
634.133300 0.009699
634.362800 0.015799
634.592300 0.015472
634.821800 0.033075
635.051400 0.031198
635.280900 0.015088
635.510500 -0.034072
635.740000 0.015238
635.969600 0.031536
636.199200 0.015351
636.428800 0.008751
636.658400 0.011771
636.888000 0.006121
637.117700 0.010458
637.347300 0.012948
637.577000 0.020620
637.806600 0.032773
638.036300 0.016456
638.266000 0.009386
638.495700 0.004713
638.725400 0.011238
638.955100 -0.002894
639.184800 0.016981
639.414500 -0.004378
639.644300 0.014035
639.874000 0.010942
640.103800 0.013348
640.333600 0.016592
640.563300 -0.011691
640.793100 -0.005130
641.022900 0.003690
641.252800 -0.004798
641.482600 0.019298
641.712400 -0.020316
641.942300 0.018715
642.172100 0.009151
642.402000 0.021206
642.631900 -0.015233
642.861700 -0.002570
643.091600 0.019590
643.321600 0.010245
643.551500 0.016196
643.781400 0.027334
644.011300 -0.014714
644.241300 0.017700
644.471200 0.006287
644.701200 -0.001877
644.931200 0.013156
645.161200 -0.016710
645.391200 0.017217
645.621200 0.024059
645.851200 -0.012542
646.081200 0.026040
646.311300 -0.010780
646.541300 0.056625
646.771400 -0.052740
647.001500 0.014721
647.231600 -0.016077
647.461600 0.004275
647.691800 0.008116
647.921900 0.002443
648.152000 0.029242
648.382100 0.010005
648.612300 0.020598
648.842400 0.013136
649.072600 0.021023
649.302800 0.005767
649.532900 0.022523
649.763100 -0.005859
649.993300 0.000146
650.223600 -0.003154
650.453800 0.007765
650.684000 0.001820
650.914300 -0.001061
651.144500 0.021326
651.374800 0.029618
651.605100 -0.009385
651.835400 0.000043
652.065700 0.020864
652.296000 0.030880
652.526300 0.007255
652.756600 0.006773
652.987000 -0.018684
653.217300 -0.002035
653.447700 0.008658
653.678000 0.013797
653.908400 0.017377
654.138800 0.038040
654.369200 0.041174
654.599600 0.024468
654.830000 0.016611
655.060500 0.000155
655.290900 0.012476
655.521300 0.030542
655.751800 0.032160
655.982300 0.002910
656.212800 0.000974
656.443300 0.001458
656.673800 0.001232
656.904300 0.002850
657.134800 0.024048
657.365300 0.024834
657.595900 0.021210
657.826400 0.024031
658.057000 0.026149
658.287500 0.016650
658.518100 0.014748
658.748700 0.023472
658.979300 0.015092
659.209900 -0.000658
659.440600 -0.025531
659.671200 -0.040036
659.901800 -0.041399
660.132500 -0.035286
660.363200 -0.031221
660.593800 0.008934
660.824500 0.015831
661.055200 -0.016333
661.285900 0.013289
661.516600 0.015458
661.747400 0.015574
661.978100 -0.004469
662.208800 -0.021814
662.439600 0.014106
662.670400 0.022468
662.901100 0.005013
663.131900 0.025922
663.362700 0.004064
663.593500 0.030082
663.824300 0.056053
664.055200 -0.007249
664.286000 0.026046
664.516800 0.006962
664.747700 0.055486
664.978600 -0.021180
665.209400 0.009663
665.440300 0.034187
665.671200 0.016790
665.902100 0.041729
666.133000 0.025966
666.364000 0.008456
666.594900 -0.019437
666.825900 0.023488
667.056800 0.040786
667.287800 0.002319
667.518800 -0.007434
667.749700 -0.017687
667.980700 0.042754
668.211700 -0.011976
668.442800 -0.017757
668.673800 0.037672
668.904800 -0.002548
669.135900 0.045897
669.366900 -0.002084
669.598000 -0.009541
669.829100 0.023817
670.060200 -0.022834
670.291300 0.046224
670.522400 0.011621
670.753500 0.033372
670.984600 -0.002679
671.215700 -0.004484
671.446900 0.024772
671.678100 0.032445
671.909200 0.016407
672.140400 0.020400
672.371600 0.011602
672.602800 0.014996
672.834000 0.024377
673.065200 -0.015142
673.296400 -0.006560
673.527700 -0.004317
673.758900 0.017147
673.990200 0.025669
674.221400 -0.016032
674.452700 -0.006193
674.684000 0.014175
674.915300 0.031847
675.146600 0.001090
675.377900 0.000784
675.609300 0.028656
675.840600 0.006200
676.071900 0.003754
676.303300 0.012516
676.534700 -0.031302
676.766100 0.000123
676.997400 -0.002311
677.228800 -0.000605
677.460200 0.008422
677.691700 0.005461
677.923100 0.014819
678.154500 0.001164
678.386000 -0.021232
678.617400 0.012965
678.848900 0.002268
679.080400 -0.017883
679.311900 0.040048
679.543400 -0.031165
679.774900 0.026935
680.006400 0.021375
680.237900 0.010740
680.469400 -0.031896
680.701000 0.028186
680.932500 -0.001362
681.164100 0.001198
681.395700 -0.011194
681.627300 0.021088
681.858900 0.019871
682.090500 0.018063
682.322100 -0.000986
682.553700 -0.003750
682.785400 -0.013124
683.017000 0.015631
683.248700 0.025820
683.480300 0.000168
683.712000 -0.051662
683.943700 -0.003214
684.175400 -0.007128
684.407100 0.004786
684.638800 -0.011044
684.870500 0.027180
685.102300 0.022027
685.334000 0.003792
685.565800 0.005605
685.797500 0.012290
686.029300 -0.001231
686.261100 0.050349
686.492900 0.021190
686.724700 -0.014704
686.956500 0.005137
687.188300 0.005864
687.420200 -0.004098
687.652000 -0.013010
687.883800 0.005792
688.115700 -0.000065
688.347600 -0.001663
688.579500 -0.001830
688.811400 0.004494
689.043300 0.055234
689.275200 0.006883
689.507100 0.023191
689.739000 -0.021520
689.971000 -0.001202
690.202900 -0.011398
690.434900 0.007035
690.666900 0.000777
690.898800 0.020416
691.130800 0.016830
691.362800 0.007073
691.594800 0.014357
691.826900 0.022073
692.058900 0.009371
692.290900 0.031924
692.523000 0.039821
692.755000 0.009267
692.987100 0.022321
693.219200 0.026705
693.451300 0.022373
693.683400 0.029948
693.915500 0.019402
694.147600 0.011159
694.379700 0.024753
694.611900 0.031822
694.844000 0.004332
695.076200 0.001622
695.308300 -0.006656
695.540500 -0.006988
695.772700 0.000059
696.004900 0.007509
696.237100 0.035587
696.469300 0.003382
696.701600 0.032689
696.933800 -0.001096
697.166000 0.000161
697.398300 0.029885
697.630600 0.012694
697.862800 0.033477
698.095100 0.020188
698.327400 0.004352
698.559700 0.011400
698.792000 -0.016130
699.024300 0.004543
699.256700 0.031792
699.489000 0.007950
699.721400 0.036517
699.953700 0.025019
700.186100 -0.013637
700.418500 -0.018282
700.650900 -0.009305
700.883300 -0.002018
701.115700 -0.006049
701.348100 -0.008874
701.580600 -0.004419
701.813000 0.024340
702.045400 0.008354
702.277900 0.024205
702.510400 0.001608
702.742900 -0.007786
702.975300 0.034468
703.207800 0.007678
703.440300 0.025166
703.672900 0.022808
703.905400 -0.018167
704.137900 0.034850
704.370500 0.000061
704.603000 0.023014
704.835600 -0.036895
705.068200 -0.028338
705.300800 0.003331
705.533400 0.002930
705.766000 -0.024760
705.998600 -0.034804
706.231200 -0.027181
706.463800 0.045018
706.696500 0.013150
706.929100 -0.006509
707.161800 -0.010154
707.394500 0.007590
707.627200 -0.021919
707.859900 0.057470
708.092600 0.011225
708.325300 0.021800
708.558000 0.017314
708.790700 0.013490
709.023500 0.020477
709.256200 -0.009590
709.489000 -0.037813
709.721700 -0.005437
709.954500 0.008182
710.187300 -0.009362
710.420100 0.019125
710.652900 -0.011840
710.885700 -0.008078
711.118600 -0.013802
711.351400 -0.033840
711.584200 0.003373
711.817100 0.023564
712.050000 -0.014183
712.282800 -0.025847
712.515700 -0.005809
712.748600 0.021732
712.981500 -0.014798
713.214400 -0.002622
713.447400 -0.019662
713.680300 0.007274
713.913200 0.028797
714.146200 0.002395
714.379100 -0.034019
714.612100 -0.014840
714.845100 -0.000937
715.078100 0.001624
715.311100 -0.015655
715.544100 -0.012808
715.777100 0.000572
716.010200 -0.000993
716.243200 -0.007107
716.476200 0.022105
716.709300 0.021551
716.942400 -0.027687
717.175400 0.000734
717.408500 0.006471
717.641600 -0.026936
717.874700 0.002863
718.107800 0.005934
718.341000 0.028639
718.574100 -0.020881
718.807200 0.024718
719.040400 0.005178
719.273600 0.048430
719.506700 -0.009601
719.739900 -0.016668
719.973100 -0.002196
720.206300 0.023381
720.439500 0.004248
720.672700 -0.015010
720.906000 0.003803
721.139200 -0.021618
721.372500 0.012154
721.605700 -0.023667
721.839000 0.041529
722.072300 0.006194
722.305500 -0.033375
722.538800 -0.010113
722.772100 -0.023998
723.005500 0.000775
723.238800 0.000078
723.472100 -0.011721
723.705500 -0.013211
723.938800 0.007618
724.172200 0.013486
724.405600 0.001800
724.638900 0.009955
724.872300 0.012986
725.105700 -0.022814
725.339100 0.028602
725.572600 0.021417
725.806000 -0.032521
726.039400 0.009720
726.272900 0.023313
726.506300 0.013794
726.739800 -0.021714
726.973300 0.009166
727.206800 0.001835
727.440300 0.020700
727.673800 -0.021921
727.907300 -0.012471
728.140800 0.001600
728.374300 0.015705
728.607900 0.024386
728.841400 -0.017641
729.075000 0.015458
729.308600 -0.014742
729.542100 0.012949
729.775700 0.012848
730.009300 -0.017099
730.242900 0.004012
730.476600 0.042462
730.710200 -0.011045
730.943800 0.007025
731.177500 0.028975
731.411100 -0.004965
731.644800 0.012065
731.878500 -0.011581
732.112200 -0.002366
732.345800 0.009172
732.579500 0.011090
732.813300 -0.011908
733.047000 0.008501
733.280700 0.018983
733.514500 0.000426
733.748200 0.019017
733.982000 0.005800
734.215700 0.002858
734.449500 0.014972
734.683300 0.024481
734.917100 -0.000594
735.150900 -0.003080
735.384700 -0.002362
735.618500 -0.001620
735.852400 0.031584
736.086200 -0.016920
736.320100 0.019293
736.553900 0.019009
736.787800 0.014350
737.021700 -0.004291
737.255600 0.015820
737.489500 -0.034359
737.723400 -0.005318
737.957300 -0.007966
738.191200 -0.005816
738.425200 -0.006168
738.659100 0.009436
738.893100 -0.009449
739.127100 0.004323
739.361000 0.003396
739.595000 0.014910
739.829000 -0.010287
740.063000 -0.013749
740.297000 0.017663
740.531000 0.012746
740.765100 -0.003989
740.999100 0.008639
741.233200 0.002386
741.467200 0.007262
741.701300 -0.008787
741.935400 -0.007027
742.169500 -0.019121
742.403600 0.001611
742.637700 0.019302
742.871800 -0.037394
743.105900 -0.002313
743.340000 0.002346
743.574200 -0.006659
743.808300 -0.006847
744.042500 -0.026433
744.276700 0.007221
744.510800 0.008531
744.745000 0.021425
744.979200 0.029561
745.213400 0.005523
745.447700 0.005348
745.681900 -0.013504
745.916100 0.026498
746.150400 0.000208
746.384600 -0.010770
746.618900 -0.038557
746.853200 0.050475
747.087400 0.002861
747.321700 0.013025
747.556000 -0.000560
747.790300 0.007414
748.024700 -0.019294
748.259000 0.023145
748.493300 0.006500
748.727700 0.005197
748.962000 -0.007917
749.196400 0.011572
749.430800 -0.003117
749.665200 0.009398
749.899500 0.001205
750.133900 -0.007540
750.368400 -0.014295
750.602800 0.001837
750.837200 0.005965
751.071700 0.019752
751.306100 0.035474
751.540600 -0.001116
751.775000 0.006075
752.009500 0.021476
752.244000 0.006249
752.478500 -0.003051
752.713000 0.034511
752.947500 0.035996
753.182000 0.008119
753.416600 0.022814
753.651100 0.014757
753.885600 0.005191
754.120200 0.006223
754.354800 -0.008045
754.589400 -0.000746
754.823900 -0.013058
755.058500 -0.007404
755.293100 0.003700
755.527800 -0.015649
755.762400 0.011255
755.997000 0.010041
756.231700 0.002952
756.466300 -0.000960
756.701000 0.007391
756.935600 -0.006750
757.170300 -0.001677
757.405000 0.031625
757.639700 -0.006334
757.874400 0.017212
758.109100 0.017185
758.343800 0.010733
758.578600 0.013875
758.813300 0.025533
759.048100 0.000601
759.282800 0.013779
759.517600 0.010735
759.752400 0.021200
759.987200 0.004627
760.222000 0.003577
760.456800 0.007581
760.691600 0.010249
760.926400 0.008095
761.161300 0.005738
761.396100 -0.000938
761.631000 0.004103
761.865800 0.013621
762.100700 0.010401
762.335600 0.013410
762.570500 -0.018497
762.805400 -0.024253
763.040300 -0.002550
763.275200 0.005077
763.510100 0.026260
763.745000 0.006031
763.980000 0.010113
764.214900 0.006255
764.449900 0.000723
764.684900 -0.004056
764.919800 -0.008068
765.154800 0.008254
765.389800 0.006212
765.624800 0.016512
765.859900 -0.002164
766.094900 0.028934
766.329900 0.005004
766.565000 0.012666
766.800000 -0.021949
767.035100 0.014770
767.270100 -0.006847
767.505200 0.017183
767.740300 -0.005037
767.975400 -0.007420
768.210500 0.025351
768.445600 -0.000612
768.680800 0.003486
768.915900 0.029173
769.151000 0.012201
769.386200 -0.004988
769.621400 0.012920
769.856500 0.001268
770.091700 0.010657
770.326900 -0.012585
770.562100 0.000189
770.797300 -0.003427
771.032500 -0.025052
771.267700 0.005171
771.503000 0.001224
771.738200 0.016026
771.973500 0.004533
772.208700 0.008965
772.444000 0.003159
772.679300 -0.027556
772.914600 0.011191
773.149900 -0.006843
773.385200 -0.012126
773.620500 0.010800
773.855800 0.002436
774.091100 -0.009169
774.326500 -0.014785
774.561800 0.017050
774.797200 0.025788
775.032600 0.046897
775.267900 -0.022300
775.503300 0.001754
775.738700 0.018394
775.974100 0.019094
776.209500 -0.005681
776.445000 0.029153
776.680400 0.009537
776.915800 0.015750
777.151300 0.006244
777.386800 -0.000772
777.622200 -0.021785
777.857700 -0.008872
778.093200 -0.007495
778.328700 -0.013465
778.564200 0.011086
778.799700 0.006186
779.035200 -0.004526
779.270700 -0.026253
779.506300 -0.008791
779.741800 0.007879
779.977400 -0.040813
780.213000 0.027628
780.448500 0.013487
780.684100 -0.002478
780.919700 0.004881
781.155300 -0.011998
781.390900 0.004592
781.626500 -0.018596
781.862200 0.038494
782.097800 0.034612
782.333500 -0.005339
782.569100 0.010528
782.804800 0.006143
783.040500 -0.015528
783.276100 -0.003220
783.511800 0.006751
783.747500 0.008681
783.983200 0.008146
784.219000 0.019209
784.454700 -0.009614
784.690400 0.014570
784.926200 0.028889
785.161900 0.023795
785.397700 0.001761
785.633500 -0.019211
785.869200 0.040999
786.105000 0.018248
786.340800 0.018499
786.576600 0.008429
786.812400 0.025858
787.048300 -0.019751
787.284100 0.051071
787.519900 0.001774
787.755800 -0.005189
787.991700 -0.002853
788.227500 0.024861
788.463400 0.014808
788.699300 0.002540
788.935200 -0.013326
789.171100 -0.005494
789.407000 -0.022541
789.642900 0.014547
789.878900 0.035896
790.114800 0.015928
790.350700 -0.012560
790.586700 -0.009035
790.822700 -0.008334
791.058600 0.008768
791.294600 0.002908
791.530600 -0.026463
791.766600 0.021489
792.002600 0.025919
792.238700 -0.051013
792.474700 0.033599
792.710700 -0.005243
792.946800 -0.035844
793.182800 0.021177
793.418900 0.004885
793.655000 -0.015289
793.891000 0.024825
794.127100 0.018304
794.363200 0.050768
794.599300 -0.030510
794.835500 0.004667
795.071600 0.007248
795.307700 0.022564
795.543900 0.024391
795.780000 0.002174
796.016200 0.032533
796.252300 0.035870
796.488500 -0.002260
796.724700 0.033961
796.960900 0.013788
797.197100 0.034563
797.433300 -0.036078
797.669500 -0.003498
797.905800 0.026154
798.142000 -0.013004
798.378300 0.000373
798.614500 0.007530
798.850800 0.029279
799.087100 0.001141
799.323300 -0.003220
799.559600 -0.023395
799.795900 0.024945
800.032200 0.002759
800.268600 0.020417
800.504900 -0.006030
800.741200 0.003588
800.977600 0.038728
801.213900 -0.018781
801.450300 0.028071
801.686700 -0.012761
801.923000 -0.015451
802.159400 0.022975
802.395800 -0.006674
802.632200 0.036663
802.868600 -0.014307
803.105100 0.006379
803.341500 -0.013303
803.577900 -0.019497
803.814400 0.024867
804.050800 -0.021633
804.287300 0.043162
804.523800 0.016712
804.760300 0.035852
804.996800 -0.041068
805.233300 0.049223
805.469800 0.035705
805.706300 -0.005772
805.942800 -0.021571
806.179400 -0.003683
806.415900 0.015073
806.652500 0.004054
806.889000 0.026405
807.125600 0.042201
807.362200 -0.022025
807.598800 -0.010849
807.835400 -0.003026
808.072000 0.018805
808.308600 0.005351
808.545200 0.016208
808.781800 -0.018423
809.018500 0.022145
809.255100 0.003110
809.491800 0.007215
809.728400 0.027199
809.965100 0.006974
810.201800 0.001851
810.438500 -0.023632
810.675200 -0.058399
810.911900 0.010205
811.148600 0.028169
811.385300 -0.009250
811.622100 -0.011768
811.858800 -0.007537
812.095600 -0.048258
812.332300 0.024972
812.569100 -0.041041
812.805900 -0.020638
813.042700 0.000180
813.279500 0.004683
813.516300 -0.013562
813.753100 0.018985
813.989900 0.018806
814.226700 0.021295
814.463600 0.025799
814.700400 0.025946
814.937300 -0.032076
815.174200 0.013519
815.411000 -0.011153
815.647900 -0.013628
815.884800 0.007681
816.121700 0.003028
816.358600 0.021244
816.595500 0.015334
816.832400 -0.002637
817.069400 -0.013094
817.306300 -0.018005
817.543300 -0.007841
817.780200 -0.038369
818.017200 0.034513
818.254200 0.035384
818.491200 -0.004222
818.728200 -0.026635
818.965200 0.020879
819.202200 -0.024731
819.439200 0.029079
819.676200 -0.068215
819.913300 0.001819
820.150300 -0.024634
820.387400 0.032656
820.624400 0.035616
820.861500 -0.005184
821.098600 0.000687
821.335700 0.033916
821.572700 0.017519
821.809900 0.010383
822.047000 0.053510
822.284100 -0.039806
822.521200 -0.013828
822.758400 -0.018824
822.995500 0.041266
823.232700 0.021388
823.469800 0.120071
823.707000 -0.000433
823.944200 0.000342
824.181400 0.031882
824.418600 -0.017410
824.655800 0.048302
824.893000 -0.018145
825.130200 -0.000477
825.367500 0.019839
825.604700 0.003559
825.841900 -0.075603
826.079200 0.036377
826.316500 0.109178
826.553700 0.067507
826.791000 0.037571
827.028300 0.068569
827.265600 0.006989
827.502900 0.001118
827.740200 0.022476
827.977600 -0.014371
828.214900 -0.068522
828.452200 0.066683
828.689600 -0.027417
828.927000 -0.040383
829.164300 -0.092564
829.401700 0.034070
829.639100 -0.041827
829.876500 -0.072645
830.113900 -0.005988
830.351300 0.021526
830.588700 0.059691
830.826100 -0.023227
831.063600 -0.076928
831.301000 0.097037
831.538500 -0.013469
831.775900 0.036229
832.013400 -0.026627
832.250900 0.069151
832.488400 0.124357
832.725900 -0.003446
832.963400 0.035888
833.200900 0.086304
833.438400 0.050949
833.675900 0.132214
833.913500 0.066144
834.151000 0.041801
834.388600 0.025625
834.626100 -0.039718
834.863700 0.078490
835.101300 -0.047413
835.338900 -0.023640
835.576500 -0.049731
835.814100 0.025901
836.051700 0.024351
836.289300 0.134420
836.526900 0.018009
836.764600 0.052719
837.002200 0.088212
837.239900 0.056035
837.477500 -0.000511
837.715200 -0.025560
837.952900 -0.048024
838.190600 0.178265
838.428300 -0.142901
838.666000 0.116797
838.903700 0.044960
839.141400 0.046264
839.379100 -0.066843
839.616900 -0.072604
839.854600 -0.043175
840.092400 0.092810
840.330200 0.013752
840.567900 0.029800
840.805700 -0.036486
841.043500 0.037216
841.281300 -0.037415
841.519100 -0.049058
841.756900 0.097621
841.994700 -0.104642
842.232600 0.000868
842.470400 0.112549
842.708200 0.005557
842.946100 -0.008377
843.184000 -0.010159
843.421800 -0.060691
843.659700 0.026247
843.897600 0.020687
844.135500 0.039053
844.373400 0.029878
844.611300 0.066969
844.849200 -0.009535
845.087200 0.130327
845.325100 0.267100
845.563100 0.020281
845.801000 0.141037
846.039000 0.031648
846.277000 -0.086233
846.514900 -0.091253
846.752900 -0.152024
846.990900 -0.107818
847.228900 -0.070138
847.466900 -0.005724
847.705000 -0.044198
847.943000 -0.073361
848.181000 0.016769
848.419100 0.192804
848.657100 -0.086964
848.895200 0.010766
849.133300 0.041126
849.371300 -0.082879
849.609400 0.165392
849.847500 -0.038501
850.085600 -0.069260
850.323700 0.165417
850.561900 -0.028657
850.800000 0.079709
851.038100 0.004176
851.276300 -0.129746
851.514400 -0.150194
851.752600 0.034548
851.990800 0.112276
852.228900 -0.095935
852.467100 0.127134
852.705300 -0.047792
852.943500 -0.011102
853.181700 -0.024401
853.420000 -0.012231
853.658200 -0.024065
853.896400 0.044536
854.134700 -0.036012
854.372900 0.062711
854.611200 0.004961
854.849500 0.080071
855.087700 0.065276
855.326000 0.053788
855.564300 0.011253
855.802600 0.090149
856.040900 0.053941
856.279200 0.008230
856.517600 0.067773
856.755900 -0.006906
856.994200 0.002353
857.232600 0.014146
857.471000 0.035389
857.709300 0.024855
857.947700 0.000422
858.186100 0.008878
858.424500 -0.054368
858.662900 0.087232
858.901300 0.035455
859.139700 0.013426
859.378100 -0.087958
859.616600 0.005704
859.855000 -0.050187
860.093500 -0.011718
860.331900 -0.011718
860.570400 0.055515
860.808900 -0.001023
861.047300 -0.004359
861.285800 -0.054758
861.524300 0.174774
861.762800 0.043472
862.001300 0.116072
862.239900 0.050121
862.478400 -0.027917
862.716900 0.002447
862.955500 -0.031223
863.194000 -0.107205
863.432600 -0.016280
863.671200 0.144456
863.909800 -0.027803
864.148300 -0.043717
864.386900 -0.107812
864.625500 0.001412
864.864200 0.028921
865.102800 0.061428
865.341400 -0.035887
865.580000 -0.030280
865.818700 0.070061
866.057300 -0.037720
866.296000 -0.028532
866.534700 -0.023420
866.773300 -0.071769
867.012000 0.071828
867.250700 0.135337
867.489400 -0.088503
867.728100 -0.153063
867.966900 0.134901
868.205600 -0.049528
868.444300 -0.008050
868.683100 0.018016
868.921800 -0.035290
869.160600 0.085657
869.399300 0.009664
869.638100 0.102485
869.876900 -0.032306
870.115700 0.076090
870.354500 -0.087235
870.593300 -0.063805
870.832100 0.074960
871.070900 -0.050227
871.309700 -0.044086
871.548600 0.100753
871.787400 -0.122140
872.026300 0.065165
872.265100 -0.071128
872.504000 0.123840
872.742900 -0.044433
872.981800 0.072551
873.220700 -0.027981
873.459600 -0.004285
873.698500 -0.033972
873.937400 0.147436
874.176300 -0.087647
874.415300 0.052178
874.654200 0.149422
874.893200 0.039162
875.132100 -0.075741
875.371100 0.096623
875.610100 0.027822
875.849100 0.028629
876.088000 0.023265
876.327000 0.119890
876.566100 0.027882
876.805100 0.044594
877.044100 0.016765
877.283100 -0.071282
877.522200 -0.123129
877.761200 0.040024
878.000300 0.087400
878.239300 0.034922
878.478400 0.098556
878.717500 0.036821
878.956600 -0.072670
879.195700 0.005747
879.434800 -0.035690
879.673900 0.015601
879.913000 0.015556
880.152100 -0.006518
880.391300 0.023392
880.630400 0.065441
880.869600 -0.044265
881.108700 0.008963
881.347900 -0.010259
881.587100 -0.024450
881.826200 0.141999
882.065400 -0.003563
882.304600 -0.072074
882.543800 0.169322
882.783100 0.125077
883.022300 -0.172067
883.261500 0.016487
883.500700 -0.047507
883.740000 -0.069340
883.979200 0.013443
884.218500 -0.084286
884.457800 0.012842
884.697100 -0.104714
884.936300 0.038596
885.175600 0.054455
885.414900 -0.115292
885.654200 0.181358
885.893600 -0.090925
886.132900 0.000778
886.372200 0.051241
886.611600 -0.103336
886.850900 0.132741
887.090300 0.083507
887.329600 0.074017
887.569000 0.131391
887.808400 0.004922
888.047800 0.012959
888.287200 -0.049795
888.526600 0.054800
888.766000 -0.046885
889.005400 -0.102935
889.244800 0.040069
889.484300 -0.099080
889.723700 -0.063323
889.963200 -0.032789
890.202600 0.159206
890.442100 -0.035088
890.681600 -0.023130
890.921100 0.088920
891.160600 -0.009285
891.400100 -0.038277
891.639600 0.057153
891.879100 -0.009008
892.118600 -0.052300
892.358100 0.001397
892.597700 0.095093
892.837200 0.186772
893.076800 -0.028259
893.316300 0.024243
893.555900 0.042385
893.795500 0.031950
894.035100 -0.042271
894.274700 0.021541
894.514300 -0.042522
894.753900 -0.149795
894.993500 0.211845
895.233100 -0.142817
895.472700 -0.036753
895.712400 0.067697
895.952000 0.009198
896.191700 -0.065226
896.431400 0.028546
896.671000 0.114868
896.910700 -0.048742
897.150400 0.037959
897.390100 0.050949
897.629800 0.117027
897.869500 0.008878
898.109200 0.027284
898.348900 0.104396
898.588700 -0.010180
898.828400 -0.042931
899.068200 0.090334
899.307900 0.040074
899.547700 0.249130
899.787500 0.084196
900.027200 -0.040315
900.267000 0.156779
900.506800 -0.032810
900.746600 0.005927
900.986400 -0.036064
901.226300 0.061027
901.466100 -0.043979
901.705900 0.055074
901.945800 0.076118
902.185600 0.086525
902.425500 -0.068900
902.665400 -0.012704
902.905200 0.041372
903.145100 0.003487
903.385000 -0.000600
903.624900 0.155217
903.864800 -0.015725
904.104700 0.085780
904.344600 -0.054827
904.584600 -0.077366
904.824500 0.126568
905.064400 0.010675
905.304400 -0.050772
905.544400 0.011521
905.784300 0.077889
906.024300 0.121996
906.264300 -0.018464
906.504300 -0.040378
906.744300 0.092551
906.984300 -0.020934
907.224300 0.046349
907.464300 0.117785
907.704300 0.037644
907.944400 0.006093
908.184400 0.071132
908.424500 -0.063697
908.664500 0.077797
908.904600 0.094263
909.144700 0.016718
909.384700 0.027291
909.624800 -0.028978
909.864900 0.047640
910.105000 0.218087
910.345200 -0.232641
910.585300 0.112523
910.825400 0.031249
911.065500 0.030964
911.305700 0.094653
911.545800 -0.003022
911.786000 -0.009892
912.026200 0.022037
912.266300 0.241600
912.506500 0.030173
912.746700 0.077340
912.986900 0.066835
913.227100 -0.036466
913.467300 0.456938
913.707500 -0.156735
913.947800 0.140122
914.188000 0.218831
914.428300 0.037850
914.668500 0.166141
914.908800 -0.097606
915.149000 -0.028345
915.389300 0.190493
915.629600 0.101821
915.869900 0.066686
916.110200 -0.038327
916.350500 0.184324
916.590800 0.003085
916.831100 0.120055
917.071400 -0.008875
917.311800 -0.093138
917.552100 -0.043417
917.792500 -0.014269
918.032800 -0.024839
918.273200 0.079895
918.513600 -0.032516
918.753900 0.171077
918.994300 0.150395
919.234700 0.052093
919.475100 -0.007034
919.715500 -0.061116
919.956000 0.072901
920.196400 -0.103030
920.436800 -0.054177
920.677300 -0.029182
920.917700 -0.033504
921.158200 0.019469
921.398600 0.042143
921.639100 0.273907
921.879600 -0.270693
922.120100 0.051506
922.360600 0.190201
922.601100 0.044544
922.841600 0.006421
923.082100 0.007964
923.322600 -0.154648
923.563100 -0.076928
923.803700 0.173947
924.044200 -0.048262
924.284800 -0.043903
924.525400 0.131794
924.765900 0.413060
925.006500 -0.040907
925.247100 -0.011578
925.487700 -0.002302
925.728300 0.369547
925.968900 -0.174628
926.209500 -0.141485
926.450100 -0.096210
926.690800 0.011853
926.931400 0.079181
927.172000 0.007448
927.412700 -0.023349
927.653300 0.109200
927.894000 -0.011390
928.134700 0.103815
928.375400 0.056961
928.616100 0.204167
928.856800 0.006663
929.097500 0.167114
929.338200 0.228000
929.578900 0.048667
929.819600 -0.044701
930.060400 -0.153839
930.301100 0.136028
930.541900 -0.073611
930.782600 0.205833
931.023400 -0.122748
931.264200 0.162936
931.504900 0.526034
931.745700 0.178198
931.986500 0.308138
932.227300 0.228301
932.468100 0.140442
932.708900 -0.115313
932.949800 0.042694
933.190600 -0.015167
933.431400 0.072298
933.672300 -0.074688
933.913100 -0.033442
934.154000 0.193442
934.394900 -0.046018
934.635800 -0.242001
934.876600 -0.110495
935.117500 0.121531
935.358400 0.024238
935.599300 -0.059912
935.840300 -0.047917
936.081200 -0.000559
936.322100 0.076377
936.563000 0.185122
936.804000 0.614726
937.044900 -0.275238
937.285900 -0.091293
937.526900 0.104854
937.767800 0.177599
938.008800 -0.069914
938.249800 0.606320
938.490800 0.294673
938.731800 0.312592
938.972800 0.418403
939.213800 0.295673
939.454900 0.071987
939.695900 -0.136583
939.936900 0.199208
940.178000 -0.044278
940.419000 -0.152658
940.660100 1.402215
940.901200 0.089536
941.142200 -0.480463
941.383300 0.033475
941.624400 -0.137969
941.865500 0.133931
942.106600 0.328934
942.347700 -0.288341
942.588900 3.252853
942.830000 -0.193125
943.071100 -0.099473
943.312300 0.674517
943.553400 -0.178164
943.794600 0.023619
944.035700 0.070907
944.276900 -0.294797
944.518100 -0.187573
944.759300 0.300678
945.000500 0.375583
945.241700 -0.058627
945.482900 3.272770
945.724100 0.575276
945.965300 -0.270958
946.206600 -0.082974
946.447800 0.255798
946.689100 -0.140804
946.930300 -0.141243
947.171600 0.049239
947.412800 0.111114
947.654100 -0.183400
947.895400 3.272538
948.136700 1.276536
948.378000 0.189897
948.619300 0.436405
948.860600 -0.090353
949.101900 0.289943
949.343300 -0.312586
949.584600 0.166673
949.825900 1.397258
950.067300 -0.106224
950.308600 0.845557
950.550000 -0.179576
950.791400 -0.653495
951.032700 -0.013188
951.274100 0.060312
951.515500 0.402349
951.756900 -0.185559
951.998300 -0.026125
952.239800 3.296446
952.481200 -0.240715
952.722600 -0.275017
952.964000 0.030889
953.205500 -0.047377
953.446900 -0.292055
953.688400 -0.069605
953.929900 0.128172
954.171300 -1.389016
954.412800 -0.113606
954.654300 0.060208
954.895800 -0.370260
955.137300 -0.557834
955.378800 0.111500
955.620300 0.597673
955.861800 0.351049
956.103400 0.146723
956.344900 -0.083713
956.586500 0.162823
956.828000 -0.102974
957.069600 -0.079677
957.311100 -0.413401
957.552700 0.824027
957.794300 0.115786
958.035900 0.165245
958.277500 -0.173712
958.519100 -0.034061
958.760700 0.150306
959.002300 0.436558
959.243900 0.248191
959.485600 2.918555
959.727200 -0.280533
959.968800 0.536537
960.210500 -0.246688
960.452200 -0.366901
960.693800 -0.062741
960.935500 -2.589950
961.177200 0.539418
961.418900 0.040429
961.660600 -0.340521
961.902300 0.130494
962.144000 -0.001840
962.385700 -0.244139
962.627400 -0.024916
962.869200 -0.298953
963.110900 -0.397682
963.352700 2.840106
963.594400 -0.102272
963.836200 -0.018719
964.077900 0.438228
964.319700 0.367666
964.561500 0.147002
964.803300 0.573401
965.045100 -0.325184
965.286900 0.661357
965.528700 0.044483
965.770500 -0.177433
966.012300 -0.332499
966.254200 2.791691
966.496000 2.663701
966.737900 0.399291
966.979700 0.312156
967.221600 -0.306409
967.463400 0.198264
967.705300 3.152288
967.947200 -0.001796
968.189100 0.653213
968.431000 0.099738
968.672900 0.937109
968.914800 3.030195
969.156700 -0.360776
969.398700 -0.216414
969.640600 2.245513
969.882500 1.040699
970.124500 2.575188
970.366400 0.031114
970.608400 0.101458
970.850400 -0.395733
971.092300 2.890421
971.334300 0.182804
971.576300 -0.013993
971.818300 -0.039890
972.060300 0.002638
972.302300 0.248139
972.544300 -0.062460
972.786400 0.649600
973.028400 3.206826
973.270400 0.080045
973.512500 0.260913
973.754500 0.439859
973.996600 0.264783
974.238700 0.554052
974.480700 0.178837
974.722800 1.114529
974.964900 -0.149712
975.207000 -0.207545
975.449100 -0.510348
975.691200 -0.036617
975.933300 -0.386851
976.175500 -2.861534
976.417600 0.024211
976.659700 3.082785
976.901900 2.067360
977.144000 0.020256
977.386200 0.132291
977.628300 3.352761
977.870500 3.139249
978.112700 -0.363492
978.354900 2.775974
978.597100 0.245917
978.839300 0.907973
979.081500 -0.024916
979.323700 0.000000
979.565900 -0.508610
979.808200 3.265290
980.050400 0.092803
980.292600 0.077651
980.534900 -0.107078
980.777100 0.840942
981.019400 -0.393932
981.261700 0.352319
981.504000 0.462962
981.746200 1.845098
981.988500 0.104238
982.230800 -0.307439
982.473100 0.294940
982.715500 0.332084
982.957800 -0.486217
983.200100 0.860005
983.442400 -0.715676
983.684800 -0.236489
983.927100 2.890421
984.169500 1.128094
984.411800 0.155913
984.654200 0.418000
984.896600 0.221251
985.139000 -1.678572
985.381400 0.516520
985.623800 0.051876
985.866200 0.018810
986.108600 0.000000
986.351000 3.089905
986.593400 0.057523
986.835800 0.364551
987.078300 2.682145
987.320700 -0.000995
987.563200 -0.317581
987.805600 -0.835934
988.048100 0.993310
988.290600 2.760422
988.533100 -2.589950
988.775600 0.018089
989.018000 0.502494
989.260500 -0.159400
989.503100 0.000000
989.745600 0.155369
989.988100 -2.513218
990.230600 -0.132333
990.473200 2.935507
990.715700 0.667729
990.958200 -0.417765
991.200800 -0.116460
991.443400 -2.848805
991.685900 -0.019857
991.928500 0.000000
992.171100 2.158362
992.413700 3.125806
992.656300 0.078165
992.898900 -0.260493
993.141500 0.256943
993.384100 3.021603
993.626700 0.527924
993.869400 -0.345428
994.112000 2.806180
994.354700 0.164810
994.597300 0.395718
994.840000 -2.342423
995.082600 -0.910575
995.325300 2.269513
995.568000 1.027463
995.810700 -0.171748
996.053400 -0.115531
996.296100 0.314152
996.538800 0.660952
996.781500 0.285215
997.024200 -0.663432
997.267000 0.449268
997.509700 3.186674
997.752400 0.038664
997.995200 -0.127249
998.237900 2.701568
998.480700 0.833516
998.723500 -2.909021
998.966200 0.134655
999.209000 -2.885926
999.451800 0.807992
999.694600 3.025715
999.937400 -0.682371
1000.180200 0.461497
1000.423000 0.181280
1000.665900 -0.327327
1000.908700 2.396199
1001.151500 -0.640001
1001.394400 0.032425
1001.637200 3.078457
1001.880100 -2.334789
1002.123000 0.184968
1002.365800 -0.505968
1002.608700 -1.085328
1002.851600 2.913284
1003.094500 1.117877
1003.337400 -0.372466
1003.580300 -3.250908
1003.823200 2.414973
1004.066100 -0.278572
1004.309100 0.376909
1004.552000 1.040117
1004.794900 2.847573
1005.037900 0.147549
1005.280800 2.806180
1005.523800 0.036807
1005.766700 -0.197915
1006.009700 -0.043688
1006.252700 0.000000
1006.495700 -0.247407
1006.738700 -2.972203
1006.981700 1.278754
1007.224700 2.653213
1007.467700 2.008600
1007.710700 -0.167491
1007.953800 0.215179
1008.196800 2.736397
1008.439800 0.029212
1008.682900 -0.607542
1008.925900 -0.049144
1009.169000 2.884229
1009.412100 -2.962369
1009.655100 2.008600
1009.898200 0.977893
1010.141300 1.478727
1010.384400 0.357699
1010.627500 2.550228
1010.870600 0.146960
1011.113700 0.704343
1011.356800 2.820201
1011.600000 -1.339884
1011.843100 -0.467096
1012.086300 -2.729974
1012.329400 -0.160775
1012.572600 0.000000
1012.815700 -0.225547
1013.058900 0.000000
1013.302100 0.106264
1013.545200 0.139433
1013.788400 1.400656
1014.031600 -3.133539
1014.274800 3.075182
1014.518000 0.399288
1014.761300 0.611689
1015.004500 0.000000
1015.247700 0.427299
1015.490900 -3.299507
1015.734200 0.527150
1015.977400 -0.469874
1016.220700 -2.612784
1016.464000 -0.055931
1016.707200 0.133427
1016.950500 -0.806010
1017.193800 2.907949
1017.437100 2.562293
1017.680400 0.065303
1017.923700 0.385942
1018.167000 0.133081
1018.410300 2.643453
1018.653600 0.400596
1018.896900 0.408819
1019.140300 -0.075656
1019.383600 2.662758
1019.627000 -0.084978
1019.870300 -0.742252
1020.113700 0.050016
1020.357100 0.867618
1020.600400 2.853698
1020.843800 3.090258
1021.087200 0.835343
1021.330600 0.000000
1021.574000 3.070776
1021.817400 0.000000
1022.060800 -3.240549
1022.304200 0.000000
1022.547700 2.902003
1022.791100 2.432969
1023.034500 2.812913
