# Wavelength	Absorbance
197.780200 -0.086209
197.984200 2.907949
198.188200 0.454285
198.392200 2.682145
198.596300 0.035140
198.800300 0.773995
199.004400 -0.004689
199.208500 2.866287
199.412600 0.077731
199.616800 -0.013117
199.820900 -0.195483
200.025100 2.877947
200.229200 0.072958
200.433400 3.008600
200.637600 2.745075
200.841800 0.050133
201.046100 -0.352183
201.250300 3.142702
201.454600 3.220892
201.658900 3.051153
201.863100 1.848629
202.067400 -0.116372
202.271800 3.093772
202.476100 2.896526
202.680500 -0.440037
202.884800 2.980458
203.089200 3.034628
203.293600 2.745075
203.498000 0.061414
203.702400 -0.628271
203.906900 0.210853
204.111300 -2.460898
204.315800 0.029384
204.520300 3.062958
204.724800 0.701220
204.929300 2.396199
205.133800 0.159779
205.338400 2.820201
205.543000 3.171434
205.747500 2.682145
205.952100 0.173643
206.156700 3.034628
206.361400 0.000000
206.566000 2.187521
206.770600 3.168203
206.975300 -0.650016
207.180000 0.845098
207.384700 2.587711
207.589400 0.000000
207.794100 2.480007
207.998900 2.622214
208.203600 3.152288
208.408400 0.975176
208.613200 -0.044310
208.818000 -0.448938
209.022800 2.414973
209.227600 0.933711
209.432500 2.907949
209.637300 -0.123979
209.842200 2.294466
210.047100 0.307289
210.252000 2.053078
210.456900 0.352361
210.661800 3.055378
210.866800 3.104828
211.071800 3.104487
211.276700 0.698434
211.481700 2.736397
211.686700 2.632457
211.891800 2.480007
212.096800 0.497410
212.301800 2.890421
212.506900 3.209783
212.712000 0.215164
212.917100 3.226342
213.122200 2.866287
213.327300 0.649183
213.532500 -2.811575
213.737600 0.413718
213.942800 1.447158
214.148000 -0.280778
214.353200 0.000000
214.558400 2.956168
214.763600 3.265290
214.968900 0.687011
215.174100 3.104487
215.379400 0.000000
215.584700 -0.017556
215.790000 0.759152
215.995300 2.820201
216.200700 0.145314
216.406000 0.025208
216.611400 -0.586058
216.816800 2.833784
217.022200 0.003128
217.227600 3.086360
217.433000 0.075661
217.638400 0.280862
217.843900 2.700704
218.049400 0.000000
218.254800 0.965451
218.460300 0.488772
218.665900 3.186674
218.871400 0.395668
219.076900 2.990339
219.282500 2.960946
219.488100 0.500732
219.693600 2.783904
219.899200 0.806743
220.104900 3.055378
220.310500 -0.730378
220.516100 0.000000
220.721800 2.872156
220.927500 3.071145
221.133200 0.639552
221.338900 2.902003
221.544600 0.327127
221.750300 0.611846
221.956100 -0.130413
222.161800 2.338456
222.367600 0.764065
222.573400 2.643453
222.779200 -3.054230
222.985000 -1.995635
223.190900 3.017451
223.396700 2.621176
223.602600 -0.192969
223.808500 0.988208
224.014400 2.853698
224.220300 2.935507
224.426200 2.719331
224.632200 0.648360
224.838100 2.890421
225.044100 2.653213
225.250100 2.550228
225.456100 0.301030
225.662100 -0.290787
225.868100 -0.333793
226.074200 -0.179118
226.280200 0.000000
226.486300 2.846955
226.692400 -2.811575
226.898500 0.529695
227.104600 -0.650016
227.310700 0.018863
227.516900 2.833784
227.723000 0.094270
227.929200 0.634805
228.135400 3.074816
228.341600 2.622214
228.547800 0.391389
228.754100 0.651709
228.960300 -0.606357
229.166600 -2.993436
229.372900 2.907949
229.579100 2.683047
229.785500 -0.047158
229.991800 0.845098
230.198100 0.221247
230.404500 1.963788
230.610800 3.003891
230.817200 0.000000
231.023600 0.538239
231.230000 -0.205694
231.436400 3.152288
231.642900 0.079015
231.849300 0.219982
232.055800 -0.757813
232.262300 0.325398
232.468800 1.959041
232.675300 0.040703
232.881800 0.450664
233.088400 -0.219656
233.294900 2.550228
233.501500 -0.365404
233.708100 0.000000
233.914700 2.710963
234.121300 0.000000
234.327900 0.385766
234.534600 0.372515
234.741300 3.097604
234.947900 0.345461
235.154600 3.406199
235.361300 3.122544
235.568000 -0.209199
235.774800 0.023271
235.981500 0.015750
236.188300 -2.491362
236.395100 -0.282603
236.601800 0.000000
236.808700 -0.085159
237.015500 2.961421
237.222300 0.462763
237.429200 0.804392
237.636000 1.896841
237.842900 1.851258
238.049800 0.608924
238.256700 -0.247155
238.463600 -0.128676
238.670600 2.970812
238.877500 3.161967
239.084500 0.000000
239.291500 0.475834
239.498500 2.245513
239.705500 0.433938
239.912500 0.698970
240.119500 -1.424415
240.326600 2.190332
240.533700 0.000000
240.740700 2.621176
240.947800 2.990339
241.154900 3.059185
241.362100 0.114790
241.569200 2.632457
241.776400 2.999131
241.983500 0.634684
242.190700 -0.125006
242.397900 0.000000
242.605100 -0.123046
242.812400 2.587711
243.019600 3.242293
243.226900 2.710117
243.434100 2.913284
243.641400 2.736397
243.848700 3.012837
244.056000 0.000000
244.263400 0.262277
244.470700 0.511077
244.678100 3.082426
244.885400 2.945469
245.092800 2.682145
245.300200 2.357935
245.507600 0.345931
245.715100 3.034628
245.922500 3.026125
246.130000 1.230449
246.337500 3.183555
246.544900 2.396199
246.752400 0.284765
246.960000 3.165244
247.167500 0.054005
247.375000 -2.680336
247.582600 0.051204
247.790200 1.845098
247.997800 3.025715
248.205400 0.743097
248.413000 0.663224
248.620600 2.727541
248.828300 3.270213
249.035900 3.030600
249.243600 3.093772
249.451300 3.282396
249.659000 3.192567
249.866700 3.168203
250.074500 3.226342
250.282200 0.979975
250.490000 -0.056491
250.697800 0.386057
250.905600 2.480007
251.113400 2.929930
251.321200 -0.163971
251.529000 -0.757813
251.736900 3.177536
251.944700 -0.223090
252.152600 0.609253
252.360500 2.710117
252.568400 0.142930
252.776300 2.397940
252.984300 -0.091433
253.192200 -0.142973
253.400200 0.295517
253.608200 0.713392
253.816200 3.282396
254.024200 -0.139254
254.232200 2.414973
254.440200 -2.750508
254.648300 -0.422632
254.856400 0.552349
255.064400 -0.124393
255.272500 0.380767
255.480600 3.104828
255.688800 0.000000
255.896900 -0.190175
256.105100 1.398391
256.313200 -0.201908
256.521400 0.678150
256.729600 0.430219
256.937800 3.171434
257.146000 2.902003
257.354300 -2.766413
257.562500 0.392545
257.770800 0.000000
257.979100 1.199711
258.187400 -0.100209
258.395700 3.082785
258.604000 3.034628
258.812400 0.030337
259.020700 3.026125
259.229100 0.216977
259.437500 2.975891
259.645900 3.198382
259.854300 2.878522
260.062700 3.125481
260.271100 2.621176
260.479600 0.286029
260.688100 2.562293
260.896500 3.252853
261.105000 2.089905
261.313500 2.621176
261.522100 3.142702
261.730600 -0.350266
261.939200 0.391938
262.147700 2.989895
262.356300 0.173366
262.564900 2.536558
262.773500 2.907411
262.982200 0.321587
263.190800 -2.352183
263.399500 3.206826
263.608100 3.039017
263.816800 3.034628
264.025500 2.396199
264.234200 -0.912045
264.442900 -0.438283
264.651700 0.636706
264.860400 2.662758
265.069200 0.005048
265.278000 0.372291
265.486800 -0.017545
265.695600 2.450249
265.904400 -0.163760
266.113300 2.599883
266.322100 3.063333
266.531000 2.294466
266.739900 -0.783628
266.948800 0.359394
267.157700 -0.108641
267.366600 0.273623
267.575500 0.138475
267.784500 -0.216184
267.993500 2.994757
268.202400 2.970812
268.411400 3.021603
268.620500 -0.203555
268.829500 -0.100821
269.038500 2.123852
269.247600 3.078819
269.456600 2.008600
269.665700 0.886491
269.874800 -0.037071
270.083900 0.106670
270.293100 0.000000
270.502200 3.034628
270.711400 -0.022114
270.920500 0.215736
271.129700 2.985426
271.338900 0.476124
271.548100 -0.282547
271.757300 3.030195
271.966600 0.811240
272.175800 0.816711
272.385100 0.336006
272.594400 -0.177791
272.803700 -0.048805
273.013000 2.799341
273.222300 2.994757
273.431600 0.339818
273.641000 0.748885
273.850400 -0.242915
274.059700 2.945961
274.269100 3.209515
274.478500 2.950851
274.688000 0.873924
274.897400 2.866287
275.106900 1.591065
275.316300 3.055378
275.525800 0.143827
275.735300 0.000000
275.944800 0.504774
276.154300 0.067262
276.363900 0.262329
276.573400 0.348744
276.783000 -0.189360
276.992600 0.767774
277.202200 3.047275
277.411800 0.041168
277.621400 0.841051
277.831000 0.572053
278.040700 1.633468
278.250300 2.820201
278.460000 -0.039004
278.669700 2.980458
278.879400 -0.867844
279.089100 2.691965
279.298900 0.249594
279.508600 0.454007
279.718400 0.210564
279.928100 0.000000
280.137900 3.215373
280.347700 -0.028408
280.557600 2.960946
280.767400 0.018242
280.977200 -0.205938
281.187100 0.000000
281.397000 3.089905
281.606900 -2.390935
281.816800 3.152288
282.026700 -0.635501
282.236600 2.935003
282.446600 0.035538
282.656500 0.000000
282.866500 2.791691
283.076500 2.338456
283.286500 1.367090
283.496500 -0.124433
283.706500 2.907411
283.916600 -0.108224
284.126600 0.845098
284.336700 -0.182461
284.546800 2.587711
284.756900 3.025715
284.967000 2.896526
285.177100 -0.003136
285.387300 0.000000
285.597400 0.356168
285.807600 -0.724765
286.017800 1.407755
286.228000 0.000000
286.438200 3.171434
286.648400 2.940516
286.858700 0.007851
287.068900 2.760422
287.279200 2.846955
287.489500 -0.678098
287.699800 0.519479
287.910100 2.621176
288.120400 0.195405
288.330800 2.220108
288.541100 0.527528
288.751500 -0.329059
288.961900 0.664362
289.172300 0.000000
289.382700 0.435330
289.593100 -0.148922
289.803500 0.000000
290.014000 2.980458
290.224500 0.398319
290.434900 -2.923244
290.645400 0.165855
290.855900 2.653213
291.066500 -0.033711
291.277000 2.744293
291.487500 0.248810
291.698100 2.768638
291.908700 2.338456
292.119300 3.059185
292.329900 3.042969
292.540500 -0.083221
292.751100 2.956168
292.961800 -2.851870
293.172400 3.171434
293.383100 0.000000
293.593800 0.050274
293.804500 0.143362
294.015200 0.141609
294.226000 0.000000
294.436700 2.799341
294.647500 2.866287
294.858200 0.222947
295.069000 0.071301
295.279800 0.164688
295.490600 -2.352183
295.701500 1.515117
295.912300 3.082785
296.123200 0.235735
296.334000 0.258433
296.544900 3.316809
296.755800 3.220892
296.966700 -0.369888
297.177700 0.796742
297.388600 2.935003
297.599500 -0.464486
297.810500 0.598896
298.021500 1.401031
298.232500 -0.030469
298.443500 1.690196
298.654500 0.605828
298.865600 0.445471
299.076600 -0.352298
299.287700 -3.186108
299.498800 1.205489
299.709900 2.902003
299.921000 0.241081
300.132100 0.272207
300.343200 0.553608
300.554400 2.769377
300.765500 0.173363
300.976700 0.000000
301.187900 1.560419
301.399100 0.241872
301.610300 3.129368
301.821500 3.364739
302.032800 3.104487
302.244100 3.017451
302.455300 3.097604
302.666600 3.063333
302.877900 0.281859
303.089200 2.357935
303.300600 3.209783
303.511900 0.174237
303.723300 2.924279
303.934600 0.103040
304.146000 0.845098
304.357400 2.432969
304.568800 0.960465
304.780300 3.192289
304.991700 0.189121
305.203100 -0.524733
305.414600 0.678554
305.626100 2.294466
305.837600 0.467125
306.049100 2.775974
306.260600 0.225726
306.472200 2.245513
306.683700 2.945961
306.895300 2.575188
307.106900 3.231724
307.318400 3.034628
307.530100 0.414736
307.741700 2.806180
307.953300 3.332236
308.165000 0.000000
308.376600 0.874355
308.588300 0.330071
308.800000 3.034227
309.011700 3.215109
309.223400 -0.035562
309.435100 2.450249
309.646900 2.840106
309.858600 3.054996
310.070400 0.058638
310.282200 1.447158
310.494000 3.287130
310.705800 3.168203
310.917600 0.475566
311.129500 -0.011764
311.341300 3.296446
311.553200 0.500077
311.765100 0.478384
311.977000 -0.139467
312.188900 0.527047
312.400800 -0.206189
312.612700 -0.173271
312.824700 1.747966
313.036600 -0.061404
313.248600 0.084798
313.460600 0.538668
313.672600 3.275081
313.884600 0.152367
314.096700 2.599883
314.308700 0.984600
314.520800 3.104828
314.732800 3.402777
314.944900 3.146128
315.157000 0.262489
315.369200 3.082785
315.581300 0.194044
315.793400 -0.280781
316.005600 3.226342
316.217700 3.168203
316.429900 0.293960
316.642100 3.168203
316.854300 0.229261
317.066600 1.072510
317.278800 0.700302
317.491100 1.648221
317.703300 3.336260
317.915600 0.678398
318.127900 0.850264
318.340200 3.097604
318.552500 2.109144
318.764900 3.139249
318.977200 3.437592
319.189600 0.129828
319.401900 3.427324
319.614300 0.207194
319.826700 0.531423
320.039200 3.358886
320.251600 0.756869
320.464000 3.336260
320.676500 0.253297
320.889000 2.465383
321.101400 3.348889
321.313900 3.310268
321.526500 3.516800
321.739000 3.376577
321.951500 0.584162
322.164100 3.132580
322.376600 1.916379
322.589200 0.791150
322.801800 3.327767
323.014400 0.814429
323.227000 0.082571
323.439700 1.046498
323.652300 0.704879
323.865000 3.374748
324.077700 3.558108
324.290400 0.849371
324.503100 1.630392
324.715800 0.700184
324.928500 1.346516
325.141200 0.572599
325.354000 0.380189
325.566800 3.389875
325.779600 3.531990
325.992400 0.675223
326.205200 3.542576
326.418000 3.474362
326.630800 0.769920
326.843700 3.659250
327.056600 1.126817
327.269400 0.736638
327.482300 1.269538
327.695200 3.385964
327.908200 3.508395
328.121100 0.530686
328.334000 0.873790
328.547000 1.750198
328.760000 1.041802
328.973000 0.624258
329.186000 3.564311
329.399000 3.445915
329.612000 0.876820
329.825100 0.633284
330.038100 3.534534
330.251200 3.572872
330.464300 0.427083
330.677400 3.635484
330.890500 3.739651
331.103600 1.264017
331.316700 3.641970
331.529900 0.703573
331.743100 0.884909
331.956200 3.661339
332.169400 0.982340
332.382600 0.974334
332.595900 3.740600
332.809100 3.604766
333.022300 1.847418
333.235600 3.633468
333.448900 0.873479
333.662200 0.709014
333.875500 3.666331
334.088800 3.518251
334.302100 0.728527
334.515400 1.760599
334.728800 3.641871
334.942200 0.623926
335.155500 3.580241
335.368900 1.117378
335.582300 0.874466
335.795800 3.676968
336.009200 0.932248
336.222700 0.854662
336.436100 3.725258
336.649600 3.795949
336.863100 1.927865
337.076600 3.787035
337.290100 3.741388
337.503600 3.672098
337.717200 3.759290
337.930700 0.594317
338.144300 3.781037
338.357900 3.656290
338.571500 1.120173
338.785100 3.703205
338.998700 0.875219
339.212400 0.963442
339.426000 1.031809
339.639700 3.667266
339.853300 3.765594
340.067000 0.902539
340.280700 1.066624
340.494500 1.073236
340.708200 3.745543
340.921900 0.775868
341.135700 0.998831
341.349500 3.731266
341.563300 0.905032
341.777100 0.656726
341.990900 1.311338
342.204700 3.816042
342.418500 1.790050
342.632400 3.830460
342.846300 0.690561
343.060100 3.693023
343.274000 1.028462
343.487900 3.871748
343.701900 1.078347
343.915800 0.954173
344.129700 0.889534
344.343700 3.778006
344.557700 3.886829
344.771700 0.945183
344.985700 0.911472
345.199700 3.834484
345.413700 0.846708
345.627700 1.165284
345.841800 0.858528
346.055900 3.854124
346.269900 3.868644
346.484000 1.636164
346.698100 3.825686
346.912300 3.850340
347.126400 3.906012
347.340600 3.899164
347.554700 1.116851
347.768900 3.886321
347.983100 3.942058
348.197300 3.889246
348.411500 0.732268
348.625700 3.866760
348.840000 0.986393
349.054200 1.144330
349.268500 1.272554
349.482800 0.999270
349.697100 3.921634
349.911400 1.615381
350.125700 3.910571
350.340000 0.934839
350.554400 3.966001
350.768700 1.213836
350.983100 3.917820
351.197500 3.889246
351.411900 1.493076
351.626300 1.143343
351.840700 3.963032
352.055200 0.803567
352.269600 3.959471
352.484100 1.086340
352.698600 1.113277
352.913100 1.505922
353.127600 3.993348
353.342100 1.799047
353.556600 1.399217
353.771200 4.007534
353.985800 0.822083
354.200300 3.930898
354.414900 3.981093
354.629500 0.758540
354.844100 1.915092
355.058800 0.850319
355.273400 2.427301
355.488100 3.989138
355.702700 0.739080
355.917400 3.938920
356.132100 0.994752
356.346800 1.248000
356.561500 0.974981
356.776300 3.974327
356.991000 4.003891
357.205800 1.110469
357.420600 3.988202
357.635300 1.301709
357.850100 4.018617
358.065000 1.057941
358.279800 3.980549
358.494600 1.299129
358.709500 0.983496
358.924300 3.975799
359.139200 4.039216
359.354100 3.988202
359.569000 4.007534
359.783900 2.443196
359.998900 2.811336
360.213800 0.827937
360.428800 1.079181
360.643800 3.982497
360.858700 3.960946
361.073700 4.040048
361.288800 4.042142
361.503800 4.026452
361.718800 3.995196
361.933900 1.227568
362.148900 4.016866
362.364000 1.228300
362.579100 4.062845
362.794200 4.002986
363.009300 0.699706
363.224500 4.031206
363.439600 0.862912
363.654800 1.644054
363.869900 4.028164
364.085100 0.965717
364.300300 0.795838
364.515500 4.049102
364.730800 1.223996
364.946000 1.178813
365.161200 0.955254
365.376500 4.086360
365.591800 4.054805
365.807100 1.810888
366.022400 1.907228
366.237700 4.078022
366.453000 2.122927
366.668400 1.737193
366.883700 4.063634
367.099100 1.238773
367.314500 4.085968
367.529900 2.567463
367.745300 1.202456
367.960700 4.089375
368.176100 4.093071
368.391600 1.351342
368.607000 1.614477
368.822500 1.361392
369.038000 2.154538
369.253500 4.100405
369.469000 1.139644
369.684500 0.988371
369.900100 2.606719
370.115600 4.067926
370.331200 0.983236
370.546800 1.110573
370.762400 4.131266
370.978000 1.219249
371.193600 1.643453
371.409200 4.124798
371.624900 2.011489
371.840500 4.181129
372.056200 0.892772
372.271900 4.101128
372.487600 4.180183
372.703300 1.333341
372.919000 1.308703
373.134800 1.285801
373.350500 1.984416
373.566300 1.582928
373.782000 1.090301
373.997800 1.859868
374.213600 1.279196
374.429400 1.905162
374.645300 1.090295
374.861100 4.167317
375.077000 0.925328
375.292800 1.501994
375.508700 4.212241
375.724600 1.287342
375.940500 4.218404
376.156400 4.224455
376.372400 2.355877
376.588300 1.557801
376.804300 1.843785
377.020300 4.247581
377.236200 4.258326
377.452200 1.191722
377.668200 1.372879
377.884300 4.260358
378.100300 1.330021
378.316400 4.291879
378.532400 2.191847
378.748500 4.301356
378.964600 1.002609
379.180700 1.736685
379.396800 4.318189
379.612900 2.128642
379.829100 1.736685
380.045200 1.535251
380.261400 1.322555
380.477600 3.172957
380.693800 4.279302
380.910000 4.341138
381.126200 2.538986
381.342400 4.319959
381.558700 2.731842
381.774900 2.540419
381.991200 1.320241
382.207500 4.314668
382.423800 4.339054
382.640100 1.407560
382.856400 1.745839
383.072800 4.319502
383.289100 1.103806
383.505500 1.874560
383.721900 4.350442
383.938200 1.819643
384.154600 4.345099
384.371100 1.485909
384.587500 1.649821
384.803900 4.366890
385.020400 1.455142
385.236800 1.716845
385.453300 4.374308
385.669800 1.820874
385.886300 1.168735
386.102800 2.280939
386.319400 1.715025
386.535900 4.371972
386.752500 1.350756
386.969000 1.246113
387.185600 1.485329
387.402200 1.258133
387.618800 1.064513
387.835500 1.800860
388.052100 1.553210
388.268700 2.256435
388.485400 1.106534
388.702100 1.012301
388.918800 1.204550
389.135500 1.456313
389.352200 0.956338
389.568900 1.558999
389.785600 1.092469
390.002400 2.637007
390.219200 1.007997
390.435900 1.030617
390.652700 0.910752
390.869500 1.298665
391.086300 0.897939
391.303200 1.188772
391.520000 0.885736
391.736900 1.127233
391.953700 0.870196
392.170600 0.909101
392.387500 0.908791
392.604400 0.967555
392.821300 0.595799
393.038300 0.773325
393.255200 0.797929
393.472200 0.801134
393.689100 0.694701
393.906100 0.827194
394.123100 0.742186
394.340100 0.785935
394.557200 0.689120
394.774200 0.678100
394.991200 0.619776
395.208300 0.674918
395.425400 0.721353
395.642500 0.706532
395.859600 0.709772
396.076700 0.596748
396.293800 0.636582
396.510900 0.623674
396.728100 0.674206
396.945300 0.600510
397.162400 0.611867
397.379600 0.564701
397.596800 0.529120
397.814000 0.515706
398.031300 0.556353
398.248500 0.536233
398.465800 0.513981
398.683000 0.512436
398.900300 0.510192
399.117600 0.473107
399.334900 0.440729
399.552200 0.492347
399.769600 0.476358
399.986900 0.471289
400.204300 0.455716
400.421600 0.479849
400.639000 0.426443
400.856400 0.441858
401.073800 0.421702
401.291200 0.487290
401.508700 0.401318
401.726100 0.435423
401.943600 0.404450
402.161000 0.381211
402.378500 0.412926
402.596000 0.348334
402.813500 0.411506
403.031000 0.350023
403.248600 0.354905
403.466100 0.364932
403.683700 0.326667
403.901300 0.374027
404.118900 0.340193
404.336500 0.360074
404.554100 0.308501
404.771700 0.333436
404.989300 0.325236
405.207000 0.319510
405.424600 0.266986
405.642300 0.346701
405.860000 0.326588
406.077700 0.347766
406.295400 0.373711
406.513100 0.336467
406.730900 0.289361
406.948600 0.271700
407.166400 0.281778
407.384200 0.330142
407.602000 0.289653
407.819800 0.247073
408.037600 0.264211
408.255400 0.260140
408.473300 0.248038
408.691100 0.249691
408.909000 0.255521
409.126900 0.262630
409.344800 0.268294
409.562700 0.240290
409.780600 0.265057
409.998500 0.290472
410.216500 0.238982
410.434400 0.277763
410.652400 0.273600
410.870400 0.273385
411.088400 0.248350
411.306400 0.206246
411.524400 0.276992
411.742400 0.241277
411.960500 0.240820
412.178500 0.217067
412.396600 0.214216
412.614700 0.217973
412.832800 0.238248
413.050900 0.246635
413.269000 0.195675
413.487100 0.201204
413.705300 0.213631
413.923400 0.260463
414.141600 0.197243
414.359800 0.244126
414.578000 0.207737
414.796200 0.160725
415.014400 0.214166
415.232600 0.197211
415.450900 0.208595
415.669200 0.177725
415.887400 0.205846
416.105700 0.210492
416.324000 0.246090
416.542300 0.217973
416.760600 0.262926
416.979000 0.203724
417.197300 0.213990
417.415700 0.175083
417.634100 0.168917
417.852400 0.184506
418.070800 0.172904
418.289300 0.214198
418.507700 0.204070
418.726100 0.176600
418.944600 0.177256
419.163000 0.166943
419.381500 0.192236
419.600000 0.187234
419.818500 0.185354
420.037000 0.183634
420.255500 0.178823
420.474100 0.196207
420.692600 0.202128
420.911200 0.192088
421.129800 0.195471
421.348300 0.197598
421.566900 0.173247
421.785600 0.211092
422.004200 0.201115
422.222800 0.167614
422.441500 0.210445
422.660100 0.156566
422.878800 0.205803
423.097500 0.170822
423.316200 0.176457
423.534900 0.161997
423.753600 0.201576
423.972400 0.212231
424.191100 0.158851
424.409900 0.164331
424.628700 0.162435
424.847500 0.211819
425.066300 0.192868
425.285100 0.134886
425.503900 0.155017
425.722800 0.196480
425.941600 0.160122
426.160500 0.176439
426.379300 0.161135
426.598200 0.165430
426.817100 0.152900
427.036100 0.190378
427.255000 0.152590
427.473900 0.170082
427.692900 0.180686
427.911800 0.192119
428.130800 0.192328
428.349800 0.192746
428.568800 0.174108
428.787800 0.168956
429.006800 0.170489
429.225900 0.153842
429.444900 0.165377
429.664000 0.159310
429.883100 0.207530
430.102200 0.192908
430.321300 0.179511
430.540400 0.202840
430.759500 0.187882
430.978700 0.187923
431.197800 0.198509
431.417000 0.180892
431.636200 0.182984
431.855300 0.145803
432.074500 0.202538
432.293800 0.169682
432.513000 0.179263
432.732200 0.203983
432.951500 0.210296
433.170700 0.231150
433.390000 0.194459
433.609300 0.182942
433.828600 0.205616
434.047900 0.199679
434.267300 0.229315
434.486600 0.178076
434.705900 0.173370
434.925300 0.194580
435.144700 0.197223
435.364100 0.209046
435.583500 0.199117
435.802900 0.199459
436.022300 0.181355
436.241800 0.200073
436.461200 0.193158
436.680700 0.174400
436.900100 0.215731
437.119600 0.191688
437.339100 0.207191
437.558600 0.192753
437.778200 0.220289
437.997700 0.221444
438.217300 0.203178
438.436800 0.211925
438.656400 0.207379
438.876000 0.203829
439.095600 0.185669
439.315200 0.250568
439.534800 0.204360
439.754500 0.198803
439.974100 0.219167
440.193800 0.226322
440.413500 0.207082
440.633100 0.202615
440.852800 0.227590
441.072500 0.239198
441.292300 0.218766
441.512000 0.231513
441.731800 0.267978
441.951500 0.241366
442.171300 0.264684
442.391100 0.259224
442.610900 0.225100
442.830700 0.228584
443.050500 0.238513
443.270300 0.223661
443.490200 0.246252
443.710100 0.239465
443.929900 0.222313
444.149800 0.244813
444.369700 0.210673
444.589600 0.241911
444.809500 0.249090
445.029500 0.278662
445.249400 0.247093
445.469400 0.260728
445.689400 0.243278
445.909300 0.278144
446.129300 0.273414
446.349300 0.261903
446.569400 0.268449
446.789400 0.294507
447.009400 0.262405
447.229500 0.265737
447.449600 0.262182
447.669600 0.260865
447.889700 0.259477
448.109800 0.245358
448.330000 0.281884
448.550100 0.262802
448.770200 0.298018
448.990400 0.301280
449.210600 0.304409
449.430700 0.300560
449.650900 0.296147
449.871100 0.311462
450.091400 0.313194
450.311600 0.297937
450.531800 0.291539
450.752100 0.306582
450.972400 0.304481
451.192600 0.297614
451.412900 0.315844
451.633200 0.342081
451.853500 0.304781
452.073900 0.310053
452.294200 0.382393
452.514600 0.316987
452.734900 0.350527
452.955300 0.347329
453.175700 0.334327
453.396100 0.336601
453.616500 0.327937
453.836900 0.318508
454.057400 0.345789
454.277800 0.394115
454.498300 0.360066
454.718800 0.318892
454.939300 0.355867
455.159700 0.345006
455.380300 0.364384
455.600800 0.352585
455.821300 0.341759
456.041900 0.384879
456.262400 0.371893
456.483000 0.372627
456.703600 0.339579
456.924200 0.402710
457.144800 0.378244
457.365400 0.372770
457.586000 0.367502
457.806700 0.343701
458.027400 0.411939
458.248000 0.388878
458.468700 0.405459
458.689400 0.426022
458.910100 0.395692
459.130800 0.395294
459.351600 0.404383
459.572300 0.410897
459.793100 0.436871
460.013800 0.388596
460.234600 0.438528
460.455400 0.431973
460.676200 0.429750
460.897000 0.409198
461.117800 0.431281
461.338700 0.423349
461.559500 0.463939
461.780400 0.402968
462.001300 0.419156
462.222200 0.435431
462.443100 0.458980
462.664000 0.451492
462.884900 0.425312
463.105900 0.461365
463.326800 0.493134
463.547800 0.455880
463.768700 0.480494
463.989700 0.535836
464.210700 0.446687
464.431700 0.482532
464.652800 0.471752
464.873800 0.542288
465.094800 0.500118
465.315900 0.512463
465.537000 0.543282
465.758100 0.497085
465.979200 0.501206
466.200300 0.555073
466.421400 0.504394
466.642500 0.549608
466.863700 0.533541
467.084800 0.566316
467.306000 0.547982
467.527200 0.514256
467.748400 0.594404
467.969600 0.558254
468.190800 0.565335
468.412000 0.608878
468.633300 0.525426
468.854500 0.502395
469.075800 0.531908
469.297000 0.534771
469.518300 0.584788
469.739600 0.539009
469.961000 0.611493
470.182300 0.547867
470.403600 0.585051
470.625000 0.629864
470.846300 0.601856
471.067700 0.640520
471.289100 0.642371
471.510500 0.636442
471.731900 0.622406
471.953300 0.633465
472.174800 0.693972
472.396200 0.643312
472.617700 0.637401
472.839100 0.625197
473.060600 0.631549
473.282100 0.623167
473.503600 0.684264
473.725100 0.723777
473.946700 0.691112
474.168200 0.650606
474.389800 0.710382
474.611300 0.734946
474.832900 0.695657
475.054500 0.682141
475.276100 0.678525
475.497700 0.749356
475.719300 0.681623
475.941000 0.691243
476.162600 0.749087
476.384300 0.787553
476.606000 0.705412
476.827700 0.754881
477.049400 0.784641
477.271100 0.744633
477.492800 0.700501
477.714500 0.795131
477.936300 0.754315
478.158000 0.775722
478.379800 0.782755
478.601600 0.877771
478.823400 0.822394
479.045200 0.829988
479.267000 0.812002
479.488800 0.754691
479.710700 0.811534
479.932500 0.962858
480.154400 0.881420
480.376300 0.795756
480.598200 0.758846
480.820100 0.756962
481.042000 0.831607
481.263900 0.790556
481.485900 0.840870
481.707800 0.985140
481.929800 0.721312
482.151700 0.826647
482.373700 0.817121
482.595700 0.828175
482.817700 0.878569
483.039800 0.958923
483.261800 0.786442
483.483800 0.855533
483.705900 0.912515
483.928000 0.871716
484.150100 0.863618
484.372100 0.958191
484.594300 0.890239
484.816400 0.881821
485.038500 0.879162
485.260600 1.009050
485.482800 0.942093
485.705000 0.963886
485.927100 0.978043
486.149300 0.960489
486.371500 0.976403
486.593700 0.917607
486.816000 0.999048
487.038200 0.944667
487.260500 0.947133
487.482700 0.959899
487.705000 0.931691
487.927300 1.008922
488.149600 0.962221
488.371900 1.078149
488.594200 0.901797
488.816500 0.980280
489.038900 0.909629
489.261200 0.940295
489.483600 0.968496
489.706000 1.186995
489.928400 0.987399
490.150800 1.165946
490.373200 0.923866
490.595600 1.128234
490.818000 1.003498
491.040500 1.009863
491.263000 1.146700
491.485400 1.110104
491.707900 0.993120
491.930400 1.017718
492.152900 1.031737
492.375500 0.955492
492.598000 1.027206
492.820500 1.060307
493.043100 1.095711
493.265700 1.246919
493.488200 1.063421
493.710800 1.121151
493.933400 1.010732
494.156100 1.050163
494.378700 0.979502
494.601300 1.225048
494.824000 1.132749
495.046600 1.222951
495.269300 1.302839
495.492000 0.963149
495.714700 1.219683
495.937400 1.362021
496.160100 1.179647
496.382900 1.152154
496.605600 1.197878
496.828400 1.150475
497.051100 1.107968
497.273900 1.106882
497.496700 1.156303
497.719500 1.078384
497.942300 1.087525
498.165200 1.237639
498.388000 1.258864
498.610900 1.133119
498.833700 1.088450
499.056600 1.230524
499.279500 1.318110
499.502400 1.094554
499.725300 1.202915
499.948200 1.100249
500.171200 1.023546
500.394100 1.165186
500.617100 1.356458
500.840000 1.195985
501.063000 1.212003
501.286000 1.091985
501.509000 1.029346
501.732000 1.423732
501.955100 1.075442
502.178100 1.200957
502.401200 1.237725
502.624200 1.264440
502.847300 1.135280
503.070400 1.387865
503.293500 1.076802
503.516600 1.349532
503.739700 1.326207
503.962800 1.181648
504.186000 1.168273
504.409200 1.343955
504.632300 1.134875
504.855500 1.208801
505.078700 1.189184
505.301900 1.260136
505.525100 1.243812
505.748300 1.277910
505.971600 1.235010
506.194800 1.226086
506.418100 1.275184
506.641400 1.300803
506.864700 1.076747
507.088000 1.056282
507.311300 1.070868
507.534600 1.356844
507.757900 1.089682
507.981300 1.265234
508.204600 1.214856
508.428000 1.564543
508.651400 1.110442
508.874800 1.143279
509.098200 1.442018
509.321600 1.243967
509.545000 1.130503
509.768500 1.365826
509.991900 1.522858
510.215400 1.321067
510.438800 1.081879
510.662300 1.140827
510.885800 1.180638
511.109300 1.450194
511.332900 1.383433
511.556400 1.584089
511.779900 1.129882
512.003500 1.335187
512.227000 1.038583
512.450600 1.070382
512.674200 1.305340
512.897800 1.180194
513.121400 1.120694
513.345100 1.195853
513.568700 1.255233
513.792300 1.087502
514.016000 1.052762
514.239700 1.121704
514.463400 1.443708
514.687100 1.353626
514.910800 1.055080
515.134500 1.196298
515.358200 1.056987
515.581900 1.389566
515.805700 1.174187
516.029500 1.249246
516.253200 1.080049
516.477000 1.082483
516.700800 1.125975
516.924600 1.127477
517.148500 1.204079
517.372300 1.110122
517.596100 1.077003
517.820000 1.154560
518.043900 1.203547
518.267700 1.523772
518.491600 1.027482
518.715500 1.303908
518.939500 1.125175
519.163400 1.360090
519.387300 1.066060
519.611300 0.932089
519.835200 1.014382
520.059200 1.214300
520.283200 1.079764
520.507200 1.050943
520.731200 1.133309
520.955200 1.070035
521.179200 1.136501
521.403300 1.044411
521.627300 1.588958
521.851400 1.011414
522.075500 1.043633
522.299600 1.219919
522.523700 0.973987
522.747800 1.105634
522.971900 1.221347
523.196000 0.893812
523.420200 1.157050
523.644300 0.958441
523.868500 0.941447
524.092700 0.961724
524.316900 0.894885
524.541100 0.938610
524.765300 1.271908
524.989500 1.024548
525.213800 1.022245
525.438000 1.083940
525.662300 1.229499
525.886500 0.921064
526.110800 0.987991
526.335100 0.969630
526.559400 1.067552
526.783700 0.964463
527.008100 0.983220
527.232400 0.844151
527.456800 1.010513
527.681100 1.004958
527.905500 0.941832
528.129900 1.071547
528.354300 0.890590
528.578700 0.871928
528.803100 0.800098
529.027600 0.879091
529.252000 0.917449
529.476500 0.843108
529.700900 0.981685
529.925400 0.948815
530.149900 1.087777
530.374400 0.890068
530.598900 0.806667
530.823400 0.865920
531.048000 0.868147
531.272500 0.797193
531.497100 0.998566
531.721700 0.855903
531.946200 0.979097
532.170800 0.770335
532.395400 0.740808
532.620000 0.827810
532.844700 0.860643
533.069300 0.879160
533.294000 0.990151
533.518600 0.775324
533.743300 0.819074
533.968000 0.785910
534.192700 0.722347
534.417400 0.692553
534.642100 0.814693
534.866800 0.811573
535.091600 0.865670
535.316300 0.788996
535.541100 0.752629
535.765900 0.746124
535.990700 0.764547
536.215500 0.775817
536.440300 0.755865
536.665100 0.739926
536.889900 0.753531
537.114800 0.700860
537.339600 0.688203
537.564500 0.717493
537.789400 0.774655
538.014300 0.705878
538.239200 0.699761
538.464100 0.751997
538.689000 0.669255
538.913900 0.638676
539.138900 0.632130
539.363800 0.657544
539.588800 0.633308
539.813800 0.719500
540.038800 0.681260
540.263800 0.615336
540.488800 0.557055
540.713800 0.695340
540.938900 0.602254
541.163900 0.610625
541.389000 0.608850
541.614000 0.569863
541.839100 0.594060
542.064200 0.585118
542.289300 0.561210
542.514400 0.602558
542.739600 0.564346
542.964700 0.575969
543.189900 0.663537
543.415000 0.598052
543.640200 0.536725
543.865400 0.560856
544.090600 0.588996
544.315800 0.603595
544.541000 0.512302
544.766200 0.558740
544.991500 0.551264
545.216700 0.502180
545.442000 0.531277
545.667300 0.480167
545.892600 0.505365
546.117900 0.494771
546.343200 0.566993
546.568500 0.492348
546.793800 0.570014
547.019200 0.430952
547.244500 0.487412
547.469900 0.461282
547.695300 0.493869
547.920600 0.510284
548.146000 0.516772
548.371500 0.415858
548.596900 0.441126
548.822300 0.425314
549.047800 0.462631
549.273200 0.399986
549.498700 0.438921
549.724200 0.434110
549.949600 0.409268
550.175100 0.429512
550.400700 0.364833
550.626200 0.421435
550.851700 0.440702
551.077300 0.440832
551.302800 0.385710
551.528400 0.377024
551.754000 0.379298
551.979600 0.420589
552.205200 0.361970
552.430800 0.365831
552.656400 0.395188
552.882000 0.390457
553.107700 0.342000
553.333300 0.349153
553.559000 0.365378
553.784700 0.360540
554.010400 0.337891
554.236100 0.346896
554.461800 0.330823
554.687500 0.347215
554.913200 0.331951
555.139000 0.327319
555.364800 0.341030
555.590500 0.306143
555.816300 0.299083
556.042100 0.355637
556.267900 0.316045
556.493700 0.313023
556.719500 0.288051
556.945400 0.325919
557.171200 0.311362
557.397100 0.289698
557.623000 0.292430
557.848800 0.333466
558.074700 0.286982
558.300600 0.250078
558.526600 0.263244
558.752500 0.288043
558.978400 0.218273
559.204400 0.251728
559.430300 0.296905
559.656300 0.249768
559.882300 0.251784
560.108300 0.220339
560.334300 0.237758
560.560300 0.280259
560.786300 0.243601
561.012400 0.229737
561.238400 0.232372
561.464500 0.221623
561.690500 0.221550
561.916600 0.232186
562.142700 0.226353
562.368800 0.221851
562.594900 0.227976
562.821100 0.227214
563.047200 0.205458
563.273300 0.206942
563.499500 0.188166
563.725700 0.194881
563.951900 0.193139
564.178100 0.221270
564.404300 0.202391
564.630500 0.205978
564.856700 0.212893
565.082900 0.184082
565.309200 0.188240
565.535500 0.203875
565.761700 0.172296
565.988000 0.190992
566.214300 0.176142
566.440600 0.150995
566.666900 0.188565
566.893200 0.177913
567.119600 0.171761
567.345900 0.165518
567.572300 0.175730
567.798700 0.148566
568.025000 0.141494
568.251400 0.168060
568.477800 0.153268
568.704300 0.153242
568.930700 0.155537
569.157100 0.157543
569.383600 0.144640
569.610000 0.138538
569.836500 0.141248
570.063000 0.138111
570.289500 0.140705
570.516000 0.151132
570.742500 0.132288
570.969000 0.145285
571.195600 0.134225
571.422100 0.133037
571.648700 0.134384
571.875200 0.132378
572.101800 0.125673
572.328400 0.131575
572.555000 0.129816
572.781600 0.133780
573.008200 0.130932
573.234900 0.131408
573.461500 0.110225
573.688200 0.116254
573.914900 0.121143
574.141500 0.118981
574.368200 0.109496
574.594900 0.108309
574.821600 0.112978
575.048400 0.120992
575.275100 0.105681
575.501800 0.110363
575.728600 0.101097
575.955400 0.103076
576.182100 0.108498
576.408900 0.101538
576.635700 0.092367
576.862600 0.092585
577.089400 0.090626
577.316200 0.091717
577.543100 0.100408
577.769900 0.094387
577.996800 0.093688
578.223700 0.090660
578.450500 0.083654
578.677400 0.087236
578.904400 0.084726
579.131300 0.085043
579.358200 0.071339
579.585100 0.079516
579.812100 0.076484
580.039100 0.075958
580.266000 0.068117
580.493000 0.071699
580.720000 0.080358
580.947000 0.063456
581.174100 0.078172
581.401100 0.074699
581.628100 0.069926
581.855200 0.067338
582.082200 0.069959
582.309300 0.068788
582.536400 0.062580
582.763500 0.060325
582.990600 0.053883
583.217700 0.061112
583.444900 0.060032
583.672000 0.055538
583.899100 0.046143
584.126300 0.046218
584.353500 0.050028
584.580700 0.053631
584.807900 0.058426
585.035100 0.055157
585.262300 0.064076
585.489500 0.052209
585.716700 0.051243
585.944000 0.054894
586.171300 0.051693
586.398500 0.046352
586.625800 0.049441
586.853100 0.049500
587.080400 0.044663
587.307700 0.040694
587.535000 0.043410
587.762400 0.039350
587.989700 0.040168
588.217100 0.041644
588.444500 0.044135
588.671800 0.039102
588.899200 0.039217
589.126600 0.035629
589.354000 0.039691
589.581500 0.039950
589.808900 0.037635
590.036300 0.045980
590.263800 0.038280
590.491300 0.039900
590.718700 0.033025
590.946200 0.035099
591.173700 0.037759
591.401200 0.042239
591.628800 0.035372
591.856300 0.041127
592.083800 0.056696
592.311400 0.015096
592.538900 0.026628
592.766500 0.040183
592.994100 0.036734
593.221700 0.043303
593.449300 0.041916
593.676900 0.037018
593.904600 0.032444
594.132200 0.028220
594.359800 0.022966
594.587500 0.027142
594.815200 0.031004
595.042900 0.041004
595.270500 0.042691
595.498300 0.027167
595.726000 0.031502
595.953700 0.037794
596.181400 0.033546
596.409200 0.031428
596.636900 0.034337
596.864700 0.033044
597.092500 0.034366
597.320300 0.032194
597.548100 0.031655
597.775900 0.025836
598.003700 0.027215
598.231500 0.040438
598.459400 0.044307
598.687200 0.039451
598.915100 0.034366
599.143000 0.033386
599.370900 0.043362
599.598800 0.032141
599.826700 0.023952
600.054600 0.031452
600.282500 0.033048
600.510500 0.021426
600.738400 0.022016
600.966400 0.021690
601.194400 0.026874
601.422300 0.015558
601.650300 0.016773
601.878300 0.026425
602.106400 0.033108
602.334400 0.026544
602.562400 0.023884
602.790500 0.024533
603.018500 0.022351
603.246600 0.028852
603.474700 0.023719
603.702800 0.023627
603.930900 0.024623
604.159000 0.015725
604.387100 0.026423
604.615200 0.015650
604.843400 0.017163
605.071500 0.023645
605.299700 0.009537
605.527900 0.005266
605.756100 0.013129
605.984300 0.009428
606.212500 0.007369
606.440700 0.007823
606.668900 0.008475
606.897200 -0.000193
607.125400 0.015914
607.353700 0.004769
607.581900 0.021198
607.810200 0.006322
608.038500 0.006602
608.266800 0.008222
608.495100 0.003167
608.723500 -0.004482
608.951800 0.011539
609.180100 0.003729
609.408500 0.010043
609.636900 0.008278
609.865300 0.011220
610.093600 0.020618
610.322000 0.011545
610.550500 0.012484
610.778900 0.012635
611.007300 0.007253
611.235700 0.013656
611.464200 0.025354
611.692700 0.011041
611.921100 0.011858
612.149600 0.012658
612.378100 0.011623
612.606600 0.008860
612.835100 0.020893
613.063700 0.001497
613.292200 0.008321
613.520800 0.009446
613.749300 0.007527
613.977900 0.021412
614.206500 0.016723
614.435100 0.020288
614.663700 0.006951
614.892300 0.011454
615.120900 0.010334
615.349500 0.022138
615.578200 0.020983
615.806800 0.016176
616.035500 0.005941
616.264200 0.011410
616.492900 0.012117
616.721600 0.018525
616.950300 0.005782
617.179000 0.008768
617.407700 -0.000403
617.636500 0.005524
617.865200 0.018543
618.094000 0.017733
618.322700 0.008494
618.551500 -0.002406
618.780300 -0.008638
619.009100 -0.003440
619.237900 0.005554
619.466700 0.009958
619.695600 0.003963
619.924400 0.000938
620.153300 0.023020
620.382100 0.022282
620.611000 0.005206
620.839900 -0.005309
621.068800 0.003783
621.297700 -0.003657
621.526600 0.016921
621.755600 -0.010980
621.984500 0.000439
622.213500 -0.004184
622.442400 0.016994
622.671400 0.016219
622.900400 0.001934
623.129400 0.011976
623.358400 0.010964
623.587400 0.005509
623.816400 -0.013245
624.045400 0.005542
624.274500 0.009377
624.503500 -0.000188
624.732600 -0.016153
624.961700 0.002940
625.190800 -0.006077
625.419900 0.016255
625.649000 -0.001210
625.878100 0.016238
626.107200 -0.002499
626.336400 -0.001952
626.565500 0.015017
626.794700 0.001148
627.023800 0.005106
627.253000 -0.003189
627.482200 -0.007642
627.711400 -0.005675
627.940600 -0.001606
628.169800 -0.004504
628.399100 -0.012026
628.628300 0.009351
628.857600 -0.008299
629.086800 0.010147
629.316100 -0.000287
629.545400 0.006062
629.774700 0.005635
630.004000 0.021232
630.233300 0.004954
630.462600 -0.004980
630.692000 0.000348
630.921300 0.004441
631.150700 0.017630
631.380100 0.006421
631.609400 -0.002463
631.838800 0.030162
632.068200 -0.002866
632.297600 -0.004022
632.527100 -0.001529
632.756500 -0.005923
632.985900 0.008840
633.215400 0.017791
633.444800 -0.009766
633.674300 0.006170
633.903800 0.007776
634.133300 0.003657
634.362800 -0.009430
634.592300 -0.023237
634.821800 0.010490
635.051400 0.014933
635.280900 -0.001535
635.510500 -0.012125
635.740000 -0.003758
635.969600 0.011919
636.199200 0.001856
636.428800 0.022935
636.658400 0.010044
636.888000 -0.008140
637.117700 0.011600
637.347300 -0.004335
637.577000 -0.009637
637.806600 -0.013471
638.036300 0.021337
638.266000 0.009034
638.495700 0.001871
638.725400 -0.002104
638.955100 -0.017208
639.184800 -0.004681
639.414500 0.025955
639.644300 -0.019561
639.874000 -0.016977
640.103800 0.002512
640.333600 -0.007845
640.563300 -0.017530
640.793100 -0.001297
641.022900 -0.008137
641.252800 0.005460
641.482600 0.013200
641.712400 -0.013298
641.942300 0.011763
642.172100 0.022384
642.402000 -0.009797
642.631900 -0.012647
642.861700 0.003470
643.091600 0.037200
643.321600 0.007246
643.551500 -0.024582
643.781400 -0.014202
644.011300 -0.028244
644.241300 -0.031308
644.471200 -0.003024
644.701200 0.000147
644.931200 0.030454
645.161200 0.015266
645.391200 0.002754
645.621200 0.021362
645.851200 -0.020943
646.081200 -0.020139
646.311300 0.032441
646.541300 0.025858
646.771400 -0.040135
647.001500 0.004800
647.231600 0.011569
647.461600 0.009438
647.691800 -0.005344
647.921900 0.000501
648.152000 0.001673
648.382100 0.004772
648.612300 0.010117
648.842400 -0.025911
649.072600 -0.002383
649.302800 -0.005806
649.532900 0.010154
649.763100 0.020269
649.993300 -0.001124
650.223600 0.012807
650.453800 -0.022482
650.684000 -0.000240
650.914300 -0.012007
651.144500 0.015956
651.374800 -0.006215
651.605100 0.020267
651.835400 -0.010813
652.065700 0.005724
652.296000 -0.003533
652.526300 -0.044947
652.756600 -0.001445
652.987000 0.016989
653.217300 -0.026690
653.447700 0.011104
653.678000 0.027124
653.908400 -0.010995
654.138800 0.012616
654.369200 0.006664
654.599600 0.022281
654.830000 0.004315
655.060500 -0.001879
655.290900 -0.008150
655.521300 0.018558
655.751800 0.025694
655.982300 0.002910
656.212800 0.000974
656.443300 0.001458
656.673800 0.001232
656.904300 0.002850
657.134800 0.017173
657.365300 0.013196
657.595900 0.008633
657.826400 0.014965
658.057000 0.010837
658.287500 0.009512
658.518100 0.001478
658.748700 0.009610
658.979300 0.006595
659.209900 -0.012029
659.440600 -0.034131
659.671200 -0.051933
659.901800 -0.054707
660.132500 -0.049533
660.363200 -0.032872
660.593800 -0.002587
660.824500 -0.044074
661.055200 0.001240
661.285900 -0.002767
661.516600 0.013698
661.747400 0.013367
661.978100 -0.005835
662.208800 0.037733
662.439600 -0.008941
662.670400 0.024358
662.901100 0.027331
663.131900 0.027021
663.362700 -0.026732
663.593500 -0.002596
663.824300 0.004835
664.055200 0.017086
664.286000 0.011696
664.516800 0.019028
664.747700 0.028706
664.978600 0.018728
665.209400 0.010258
665.440300 0.033266
665.671200 -0.000583
665.902100 0.016920
666.133000 0.014048
666.364000 -0.034009
666.594900 -0.031327
666.825900 -0.003542
667.056800 0.036041
667.287800 0.024787
667.518800 0.023765
667.749700 -0.028480
667.980700 0.014027
668.211700 0.013991
668.442800 -0.014188
668.673800 -0.005381
668.904800 0.039373
669.135900 0.013458
669.366900 0.003529
669.598000 -0.026115
669.829100 -0.000598
670.060200 -0.056772
670.291300 0.084861
670.522400 0.004336
670.753500 0.007340
670.984600 -0.024599
671.215700 0.054777
671.446900 0.044516
671.678100 0.014838
671.909200 0.001217
672.140400 0.018559
672.371600 0.002263
672.602800 0.013248
672.834000 -0.000279
673.065200 -0.017445
673.296400 -0.003493
673.527700 -0.014426
673.758900 0.007740
673.990200 0.011668
674.221400 0.018842
674.452700 0.013906
674.684000 -0.005789
674.915300 0.025868
675.146600 0.010190
675.377900 -0.026155
675.609300 0.013630
675.840600 0.020626
676.071900 0.037126
676.303300 0.013832
676.534700 -0.031819
676.766100 0.025932
676.997400 0.032450
677.228800 0.014575
677.460200 0.006804
677.691700 0.001374
677.923100 -0.005506
678.154500 0.021024
678.386000 0.017301
678.617400 -0.005242
678.848900 -0.003219
679.080400 -0.006366
679.311900 0.001379
679.543400 0.003732
679.774900 -0.022834
680.006400 0.023829
680.237900 0.009809
680.469400 -0.003430
680.701000 0.030798
680.932500 0.010465
681.164100 -0.012075
681.395700 0.011058
681.627300 0.004473
681.858900 0.027957
682.090500 -0.018262
682.322100 0.016006
682.553700 -0.019986
682.785400 -0.019705
683.017000 0.007838
683.248700 0.010919
683.480300 -0.017045
683.712000 -0.031182
683.943700 0.026721
684.175400 0.009819
684.407100 0.016262
684.638800 -0.014540
684.870500 -0.004999
685.102300 0.024862
685.334000 0.003033
685.565800 0.004096
685.797500 0.027525
686.029300 -0.007839
686.261100 0.023537
686.492900 0.010446
686.724700 -0.003133
686.956500 -0.030646
687.188300 0.023487
687.420200 0.005022
687.652000 -0.015968
687.883800 -0.018407
688.115700 -0.002473
688.347600 -0.015673
688.579500 0.007181
688.811400 0.002637
689.043300 0.002024
689.275200 0.011266
689.507100 0.009411
689.739000 -0.006287
689.971000 -0.024484
690.202900 0.020247
690.434900 -0.006283
690.666900 -0.001999
690.898800 0.012923
691.130800 -0.002081
691.362800 0.014922
691.594800 0.024281
691.826900 0.018441
692.058900 -0.011042
692.290900 0.009734
692.523000 0.003747
692.755000 0.035945
692.987100 -0.020545
693.219200 0.013102
693.451300 0.021300
693.683400 0.020305
693.915500 0.007541
694.147600 -0.000799
694.379700 0.010171
694.611900 -0.011497
694.844000 0.029275
695.076200 -0.004475
695.308300 0.032328
695.540500 0.026152
695.772700 -0.019435
696.004900 0.034550
696.237100 0.008818
696.469300 -0.019269
696.701600 -0.000283
696.933800 0.008490
697.166000 0.018565
697.398300 0.026678
697.630600 0.016626
697.862800 0.017200
698.095100 0.035561
698.327400 0.013202
698.559700 0.019995
698.792000 -0.016735
699.024300 0.023047
699.256700 0.022471
699.489000 -0.011820
699.721400 0.024537
699.953700 -0.024306
700.186100 0.022611
700.418500 -0.020110
700.650900 -0.001954
700.883300 -0.014230
701.115700 0.009104
701.348100 -0.023522
701.580600 0.046746
701.813000 0.035359
702.045400 -0.030568
702.277900 -0.012281
702.510400 0.005858
702.742900 -0.007036
702.975300 0.012620
703.207800 0.001918
703.440300 0.039760
703.672900 0.040594
703.905400 -0.012590
704.137900 0.039897
704.370500 -0.005536
704.603000 0.023543
704.835600 0.027276
705.068200 0.001369
705.300800 -0.001329
705.533400 0.015672
705.766000 -0.000767
705.998600 0.023761
706.231200 0.010307
706.463800 -0.006505
706.696500 0.010560
706.929100 -0.016558
707.161800 -0.018333
707.394500 0.011759
707.627200 -0.004354
707.859900 0.041503
708.092600 0.010622
708.325300 -0.004651
708.558000 0.018695
708.790700 0.006104
709.023500 0.005133
709.256200 0.022692
709.489000 -0.003189
709.721700 -0.011622
709.954500 0.003923
710.187300 -0.011411
710.420100 0.000478
710.652900 -0.040158
710.885700 -0.020571
711.118600 0.003255
711.351400 -0.032574
711.584200 -0.006627
711.817100 0.024037
712.050000 -0.012492
712.282800 -0.003552
712.515700 -0.006584
712.748600 -0.010036
712.981500 -0.018323
713.214400 0.023553
713.447400 0.001658
713.680300 -0.013251
713.913200 -0.017029
714.146200 -0.017672
714.379100 0.000128
714.612100 0.004718
714.845100 -0.003177
715.078100 0.005354
715.311100 -0.041288
715.544100 0.022850
715.777100 -0.016662
716.010200 -0.001131
716.243200 -0.041672
716.476200 0.004395
716.709300 0.000663
716.942400 -0.023361
717.175400 -0.002365
717.408500 -0.021861
717.641600 -0.034720
717.874700 -0.023502
718.107800 0.002057
718.341000 -0.002058
718.574100 -0.003650
718.807200 0.031837
719.040400 0.018022
719.273600 -0.011619
719.506700 0.013362
719.739900 -0.018304
719.973100 0.009198
720.206300 -0.019711
720.439500 0.023246
720.672700 -0.003397
720.906000 0.015479
721.139200 -0.017371
721.372500 0.051551
721.605700 0.026888
721.839000 0.016836
722.072300 -0.018359
722.305500 0.006970
722.538800 -0.017625
722.772100 -0.019600
723.005500 -0.021960
723.238800 0.009247
723.472100 -0.000899
723.705500 0.016972
723.938800 -0.011963
724.172200 -0.003229
724.405600 -0.002415
724.638900 0.011405
724.872300 0.011137
725.105700 0.014243
725.339100 0.002244
725.572600 -0.003031
725.806000 0.009050
726.039400 0.004074
726.272900 0.024274
726.506300 -0.010371
726.739800 0.037622
726.973300 0.014457
727.206800 0.019488
727.440300 0.036907
727.673800 0.018575
727.907300 0.042196
728.140800 0.014005
728.374300 0.009752
728.607900 0.019837
728.841400 -0.023252
729.075000 0.012291
729.308600 -0.000013
729.542100 0.008233
729.775700 0.010727
730.009300 0.014218
730.242900 0.004386
730.476600 0.042330
730.710200 0.005505
730.943800 0.016165
731.177500 -0.002752
731.411100 0.011074
731.644800 0.024026
731.878500 -0.010478
732.112200 -0.000544
732.345800 -0.006221
732.579500 0.028132
732.813300 0.003019
733.047000 -0.009243
733.280700 0.046730
733.514500 0.020891
733.748200 0.010783
733.982000 -0.001078
734.215700 -0.005357
734.449500 -0.002897
734.683300 0.017493
734.917100 -0.009600
735.150900 -0.018873
735.384700 0.003143
735.618500 0.013066
735.852400 0.011072
736.086200 0.010599
736.320100 -0.028902
736.553900 0.009308
736.787800 -0.005521
737.021700 -0.004405
737.255600 0.010378
737.489500 -0.007952
737.723400 -0.017690
737.957300 0.009604
738.191200 -0.021241
738.425200 0.013991
738.659100 -0.015156
738.893100 -0.032981
739.127100 0.002185
739.361000 -0.006206
739.595000 0.011081
739.829000 -0.006643
740.063000 -0.008458
740.297000 -0.001171
740.531000 -0.004894
740.765100 0.000044
740.999100 0.000750
741.233200 0.016138
741.467200 0.013630
741.701300 -0.026722
741.935400 -0.004255
742.169500 0.010787
742.403600 0.000933
742.637700 -0.019403
742.871800 -0.012888
743.105900 -0.007589
743.340000 0.022542
743.574200 -0.006508
743.808300 0.006275
744.042500 -0.030718
744.276700 -0.011389
744.510800 0.010291
744.745000 -0.021074
744.979200 -0.005375
745.213400 0.020423
745.447700 0.000075
745.681900 0.002765
745.916100 0.015894
746.150400 0.024214
746.384600 0.015424
746.618900 -0.024372
746.853200 0.013975
747.087400 -0.004721
747.321700 0.005609
747.556000 -0.003009
747.790300 -0.005115
748.024700 -0.001856
748.259000 -0.014714
748.493300 -0.011967
748.727700 -0.006418
748.962000 -0.023534
749.196400 -0.010493
749.430800 0.005740
749.665200 -0.000535
749.899500 0.013749
750.133900 -0.008152
750.368400 0.023719
750.602800 -0.015034
750.837200 -0.012792
751.071700 -0.019366
751.306100 -0.010431
751.540600 -0.009328
751.775000 0.022865
752.009500 -0.001550
752.244000 -0.014099
752.478500 -0.020854
752.713000 0.026622
752.947500 -0.000159
753.182000 -0.002130
753.416600 0.015255
753.651100 0.025103
753.885600 0.003153
754.120200 0.005876
754.354800 -0.004823
754.589400 0.028867
754.823900 -0.013622
755.058500 0.004521
755.293100 -0.014544
755.527800 -0.015149
755.762400 -0.002734
755.997000 0.021806
756.231700 -0.011993
756.466300 0.014370
756.701000 -0.022938
756.935600 -0.002644
757.170300 -0.002466
757.405000 0.017128
757.639700 0.001077
757.874400 0.029527
758.109100 0.007769
758.343800 0.021386
758.578600 0.006143
758.813300 -0.005068
759.048100 -0.014615
759.282800 0.013997
759.517600 -0.003309
759.752400 -0.012797
759.987200 0.004970
760.222000 -0.003002
760.456800 0.021178
760.691600 0.007157
760.926400 0.003545
761.161300 0.000944
761.396100 -0.009019
761.631000 0.033438
761.865800 0.021415
762.100700 0.014645
762.335600 0.016467
762.570500 0.013060
762.805400 0.002742
763.040300 -0.004148
763.275200 0.000379
763.510100 -0.001936
763.745000 0.012078
763.980000 0.013774
764.214900 -0.009349
764.449900 0.011524
764.684900 0.009344
764.919800 -0.005715
765.154800 -0.003304
765.389800 -0.002694
765.624800 0.017890
765.859900 -0.005942
766.094900 0.015931
766.329900 0.001204
766.565000 0.010246
766.800000 0.012782
767.035100 0.034912
767.270100 -0.002619
767.505200 0.017794
767.740300 -0.001473
767.975400 -0.013913
768.210500 0.001679
768.445600 -0.012057
768.680800 -0.008493
768.915900 0.037913
769.151000 0.017509
769.386200 0.014525
769.621400 0.001862
769.856500 0.023592
770.091700 -0.004683
770.326900 -0.002501
770.562100 0.003074
770.797300 0.002120
771.032500 0.003032
771.267700 0.025313
771.503000 -0.001394
771.738200 0.019315
771.973500 -0.023017
772.208700 -0.000764
772.444000 0.013365
772.679300 -0.013163
772.914600 -0.010303
773.149900 -0.024945
773.385200 0.008816
773.620500 0.022291
773.855800 0.018534
774.091100 -0.007323
774.326500 -0.021814
774.561800 -0.001376
774.797200 0.031372
775.032600 0.033235
775.267900 -0.026018
775.503300 0.019745
775.738700 -0.006244
775.974100 0.041890
776.209500 -0.018475
776.445000 0.015718
776.680400 0.009036
776.915800 0.026074
777.151300 -0.021023
777.386800 -0.004629
777.622200 0.005399
777.857700 -0.013119
778.093200 0.004095
778.328700 -0.005212
778.564200 0.008505
778.799700 0.019192
779.035200 0.011363
779.270700 0.022815
779.506300 0.009751
779.741800 -0.010459
779.977400 -0.016345
780.213000 -0.030702
780.448500 0.007136
780.684100 0.041953
780.919700 0.031523
781.155300 -0.037732
781.390900 0.036588
781.626500 -0.000934
781.862200 0.003079
782.097800 0.026357
782.333500 0.001029
782.569100 -0.010469
782.804800 0.008702
783.040500 -0.006291
783.276100 -0.024665
783.511800 0.036782
783.747500 -0.000420
783.983200 0.007458
784.219000 0.009990
784.454700 0.032370
784.690400 0.013187
784.926200 0.019377
785.161900 0.010988
785.397700 -0.005517
785.633500 -0.013400
785.869200 -0.011106
786.105000 -0.014646
786.340800 0.022564
786.576600 -0.006725
786.812400 0.024666
787.048300 -0.007760
787.284100 0.008732
787.519900 0.005076
787.755800 0.007605
787.991700 0.013291
788.227500 0.005823
788.463400 0.012497
788.699300 -0.005504
788.935200 0.007055
789.171100 -0.018347
789.407000 0.010467
789.642900 -0.010164
789.878900 0.012518
790.114800 0.031135
790.350700 -0.004431
790.586700 0.012471
790.822700 -0.027211
791.058600 0.007030
791.294600 0.029523
791.530600 0.009616
791.766600 0.015930
792.002600 0.042994
792.238700 -0.025871
792.474700 0.025571
792.710700 -0.047181
792.946800 -0.020590
793.182800 -0.003653
793.418900 0.084579
793.655000 0.021914
793.891000 0.048344
794.127100 0.015461
794.363200 0.030493
794.599300 0.018234
794.835500 0.003936
795.071600 0.010109
795.307700 0.016528
795.543900 0.010145
795.780000 0.017331
796.016200 0.026500
796.252300 0.028171
796.488500 0.045932
796.724700 0.015263
796.960900 0.006039
797.197100 0.001665
797.433300 -0.006564
797.669500 0.002514
797.905800 0.038887
798.142000 -0.027960
798.378300 -0.000578
798.614500 -0.015124
798.850800 -0.003273
799.087100 0.047734
799.323300 -0.018554
799.559600 -0.010057
799.795900 -0.003694
800.032200 0.012414
800.268600 -0.039526
800.504900 -0.025797
800.741200 -0.005062
800.977600 -0.002272
801.213900 -0.006970
801.450300 0.021337
801.686700 0.002945
801.923000 -0.006849
802.159400 0.020630
802.395800 -0.018014
802.632200 -0.012489
802.868600 -0.023874
803.105100 0.010798
803.341500 0.009359
803.577900 0.053179
803.814400 0.051534
804.050800 0.005977
804.287300 0.017895
804.523800 -0.007411
804.760300 0.015816
804.996800 -0.017471
805.233300 0.012446
805.469800 0.015010
805.706300 -0.031549
805.942800 -0.028805
806.179400 -0.035765
806.415900 0.016474
806.652500 -0.035399
806.889000 0.032152
807.125600 0.013401
807.362200 0.000000
807.598800 0.000964
807.835400 -0.007936
808.072000 -0.017084
808.308600 0.014994
808.545200 0.004349
808.781800 -0.037004
809.018500 0.044970
809.255100 -0.013439
809.491800 -0.054128
809.728400 0.001659
809.965100 0.027340
810.201800 -0.012681
810.438500 -0.022872
810.675200 -0.007306
810.911900 0.010020
811.148600 0.053137
811.385300 0.021815
811.622100 0.020658
811.858800 0.031581
812.095600 -0.032927
812.332300 -0.036870
812.569100 -0.021862
812.805900 -0.029883
813.042700 -0.008201
813.279500 0.009331
813.516300 0.010987
813.753100 -0.028312
813.989900 -0.001520
814.226700 0.034436
814.463600 -0.010137
814.700400 0.029967
814.937300 0.014044
815.174200 -0.044996
815.411000 -0.009659
815.647900 -0.037865
815.884800 -0.040453
816.121700 -0.006548
816.358600 0.004660
816.595500 0.017595
816.832400 -0.014078
817.069400 0.018179
817.306300 -0.000059
817.543300 0.024317
817.780200 -0.021339
818.017200 -0.033051
818.254200 0.022885
818.491200 0.020071
818.728200 0.041948
818.965200 0.006085
819.202200 -0.006349
819.439200 0.016363
819.676200 -0.016843
819.913300 0.041820
820.150300 -0.085692
820.387400 0.061527
820.624400 0.020396
820.861500 -0.003728
821.098600 0.031125
821.335700 0.068883
821.572700 0.008051
821.809900 -0.005070
822.047000 0.017416
822.284100 -0.014217
822.521200 -0.020596
822.758400 0.007486
822.995500 0.080444
823.232700 0.050234
823.469800 0.025783
823.707000 -0.012203
823.944200 -0.018760
824.181400 0.009817
824.418600 0.000899
824.655800 0.035212
824.893000 0.028446
825.130200 0.091072
825.367500 -0.008720
825.604700 0.021047
825.841900 -0.024432
826.079200 0.035400
826.316500 0.028291
826.553700 0.021514
826.791000 0.080197
827.028300 -0.003856
827.265600 -0.006033
827.502900 0.045353
827.740200 0.043271
827.977600 0.007129
828.214900 0.040381
828.452200 -0.019154
828.689600 -0.033879
828.927000 0.031005
829.164300 -0.046823
829.401700 -0.040965
829.639100 0.002975
829.876500 0.019991
830.113900 0.006430
830.351300 0.000444
830.588700 -0.006901
830.826100 -0.033020
831.063600 -0.091022
831.301000 0.017061
831.538500 -0.010691
831.775900 0.018249
832.013400 0.012604
832.250900 0.087191
832.488400 0.074069
832.725900 0.050364
832.963400 -0.033399
833.200900 0.042904
833.438400 -0.015751
833.675900 0.018163
833.913500 -0.016981
834.151000 0.081424
834.388600 0.038986
834.626100 -0.039974
834.863700 0.094833
835.101300 -0.022184
835.338900 0.075185
835.576500 0.070308
835.814100 -0.078870
836.051700 -0.009361
836.289300 0.093562
836.526900 -0.063248
836.764600 0.045357
837.002200 0.048157
837.239900 0.091679
837.477500 0.001537
837.715200 -0.089202
837.952900 0.031096
838.190600 0.009839
838.428300 0.035618
838.666000 0.078196
838.903700 0.011878
839.141400 0.036367
839.379100 -0.096886
839.616900 0.030345
839.854600 -0.080452
840.092400 -0.024516
840.330200 0.110101
840.567900 0.087144
840.805700 0.057106
841.043500 0.026799
841.281300 0.057512
841.519100 0.045654
841.756900 0.118148
841.994700 -0.003649
842.232600 0.062234
842.470400 0.071552
842.708200 -0.075110
842.946100 -0.027578
843.184000 0.014654
843.421800 0.082648
843.659700 0.036139
843.897600 -0.126731
844.135500 0.101694
844.373400 -0.006866
844.611300 -0.007112
844.849200 0.100893
845.087200 -0.017149
845.325100 -0.016604
845.563100 0.128445
845.801000 0.178305
846.039000 0.073578
846.277000 -0.103664
846.514900 0.051951
846.752900 0.032369
846.990900 -0.047737
847.228900 -0.091236
847.466900 0.111719
847.705000 0.117319
847.943000 -0.021368
848.181000 -0.007752
848.419100 -0.066390
848.657100 0.215425
848.895200 0.031892
849.133300 0.051692
849.371300 0.002273
849.609400 -0.071870
849.847500 0.258028
850.085600 -0.031560
850.323700 0.176127
850.561900 -0.065207
850.800000 -0.015066
851.038100 0.097862
851.276300 -0.068123
851.514400 -0.118936
851.752600 0.147687
851.990800 -0.009992
852.228900 0.007710
852.467100 0.049306
852.705300 0.010631
852.943500 -0.009646
853.181700 -0.011300
853.420000 -0.016672
853.658200 0.013288
853.896400 0.008089
854.134700 0.067730
854.372900 0.021177
854.611200 0.035919
854.849500 0.046343
855.087700 0.057631
855.326000 0.008755
855.564300 -0.018152
855.802600 0.079162
856.040900 0.077201
856.279200 0.055941
856.517600 0.109705
856.755900 0.042235
856.994200 -0.016783
857.232600 -0.024735
857.471000 -0.006190
857.709300 0.043276
857.947700 0.005516
858.186100 0.085866
858.424500 -0.012455
858.662900 0.040114
858.901300 0.048155
859.139700 0.097199
859.378100 0.022578
859.616600 0.057421
859.855000 -0.042840
860.093500 0.040902
860.331900 -0.017616
860.570400 0.018576
860.808900 0.005480
861.047300 0.018777
861.285800 0.107410
861.524300 0.071866
861.762800 -0.005730
862.001300 0.050772
862.239900 0.000919
862.478400 -0.034229
862.716900 0.083018
862.955500 0.017881
863.194000 0.014350
863.432600 0.034382
863.671200 -0.000267
863.909800 -0.017536
864.148300 -0.063549
864.386900 0.035466
864.625500 0.003632
864.864200 -0.016837
865.102800 0.002494
865.341400 -0.096616
865.580000 -0.086118
865.818700 0.211445
866.057300 0.033911
866.296000 0.057944
866.534700 0.013985
866.773300 0.119635
867.012000 0.108263
867.250700 -0.005007
867.489400 -0.032344
867.728100 -0.088330
867.966900 0.082352
868.205600 -0.105907
868.444300 0.104892
868.683100 -0.090577
868.921800 -0.119906
869.160600 0.013579
869.399300 -0.047543
869.638100 0.025746
869.876900 -0.003907
870.115700 -0.079166
870.354500 -0.017763
870.593300 -0.011732
870.832100 0.130646
871.070900 0.182075
871.309700 -0.049907
871.548600 0.095018
871.787400 -0.082474
872.026300 -0.034406
872.265100 -0.038194
872.504000 0.024965
872.742900 -0.053028
872.981800 0.167971
873.220700 0.068191
873.459600 0.165667
873.698500 0.004421
873.937400 0.051970
874.176300 -0.134180
874.415300 0.130539
874.654200 0.150996
874.893200 0.103352
875.132100 -0.013331
875.371100 0.070357
875.610100 0.120215
875.849100 0.079546
876.088000 0.025962
876.327000 0.137015
876.566100 0.014687
876.805100 -0.087445
877.044100 0.102668
877.283100 -0.043539
877.522200 -0.091751
877.761200 -0.024191
878.000300 0.080681
878.239300 0.055775
878.478400 0.008170
878.717500 0.074998
878.956600 0.084160
879.195700 0.042793
879.434800 -0.091098
879.673900 0.141116
879.913000 0.058467
880.152100 -0.026460
880.391300 0.048284
880.630400 0.046937
880.869600 -0.042537
881.108700 -0.043138
881.347900 -0.006032
881.587100 0.047900
881.826200 0.144943
882.065400 0.099195
882.304600 -0.007546
882.543800 0.189166
882.783100 0.058051
883.022300 -0.033572
883.261500 -0.059006
883.500700 0.046843
883.740000 -0.096286
883.979200 0.067452
884.218500 0.026399
884.457800 -0.000221
884.697100 -0.081646
884.936300 0.033597
885.175600 0.027423
885.414900 0.149694
885.654200 -0.025121
885.893600 0.072289
886.132900 -0.034799
886.372200 0.061560
886.611600 -0.085417
886.850900 0.088341
887.090300 -0.008055
887.329600 0.044107
887.569000 0.079594
887.808400 0.012299
888.047800 -0.138742
888.287200 -0.086178
888.526600 0.136766
888.766000 -0.003173
889.005400 0.060292
889.244800 0.036062
889.484300 -0.010181
889.723700 0.008117
889.963200 -0.017468
890.202600 0.017390
890.442100 -0.055331
890.681600 0.093089
890.921100 0.186027
891.160600 0.115380
891.400100 -0.074955
891.639600 0.040633
891.879100 0.118379
892.118600 0.096397
892.358100 0.066621
892.597700 0.060345
892.837200 0.026333
893.076800 -0.041182
893.316300 -0.021178
893.555900 -0.041467
893.795500 0.074345
894.035100 -0.069729
894.274700 0.146091
894.514300 0.047339
894.753900 -0.037242
894.993500 0.107100
895.233100 0.035892
895.472700 -0.003937
895.712400 0.178847
895.952000 0.129012
896.191700 0.021608
896.431400 0.054315
896.671000 0.196002
896.910700 -0.019825
897.150400 0.089379
897.390100 -0.015184
897.629800 0.038654
897.869500 -0.072077
898.109200 -0.009951
898.348900 -0.068243
898.588700 -0.017621
898.828400 0.096345
899.068200 -0.036547
899.307900 -0.002833
899.547700 0.032675
899.787500 0.133114
900.027200 -0.052272
900.267000 0.216799
900.506800 0.154939
900.746600 0.026226
900.986400 0.102597
901.226300 -0.043361
901.466100 -0.075645
901.705900 0.170997
901.945800 0.039729
902.185600 0.066863
902.425500 -0.115476
902.665400 0.070022
902.905200 0.235418
903.145100 0.004908
903.385000 0.088313
903.624900 0.226658
903.864800 0.093918
904.104700 -0.006517
904.344600 0.110453
904.584600 -0.124602
904.824500 -0.042179
905.064400 -0.034750
905.304400 0.007067
905.544400 0.190062
905.784300 0.072395
906.024300 0.048384
906.264300 0.009629
906.504300 -0.071655
906.744300 -0.062330
906.984300 -0.029460
907.224300 0.287121
907.464300 0.101950
907.704300 0.039268
907.944400 0.086143
908.184400 -0.081897
908.424500 0.003134
908.664500 -0.037074
908.904600 0.131374
909.144700 0.232222
909.384700 0.093692
909.624800 -0.081344
909.864900 -0.075645
910.105000 0.269385
910.345200 -0.206383
910.585300 -0.032491
910.825400 -0.017526
911.065500 0.157976
911.305700 0.160624
911.545800 0.054111
911.786000 0.021318
912.026200 0.097670
912.266300 0.142575
912.506500 -0.108310
912.746700 0.129212
912.986900 0.024185
913.227100 0.229309
913.467300 0.073102
913.707500 -0.070875
913.947800 0.287053
914.188000 0.310306
914.428300 -0.051942
914.668500 0.285115
914.908800 -0.023863
915.149000 -0.036642
915.389300 0.329615
915.629600 0.016641
915.869900 0.080823
916.110200 -0.159303
916.350500 -0.103958
916.590800 -0.072875
916.831100 0.252254
917.071400 0.174282
917.311800 0.113067
917.552100 -0.008746
917.792500 -0.019343
918.032800 0.034838
918.273200 0.156897
918.513600 0.162656
918.753900 0.052632
918.994300 0.118772
919.234700 -0.001176
919.475100 0.051667
919.715500 -0.085610
919.956000 0.261819
920.196400 0.105870
920.436800 -0.139843
920.677300 -0.047800
920.917700 -0.137072
921.158200 0.006197
921.398600 -0.101082
921.639100 0.186641
921.879600 -0.257699
922.120100 0.273142
922.360600 0.321739
922.601100 -0.104635
922.841600 0.102941
923.082100 -0.045063
923.322600 -0.053096
923.563100 0.298865
923.803700 0.070667
924.044200 0.089400
924.284800 0.244786
924.525400 0.424998
924.765900 0.296105
925.006500 -0.078569
925.247100 -0.070137
925.487700 0.066716
925.728300 0.011921
925.968900 0.082932
926.209500 0.048875
926.450100 -0.018913
926.690800 0.272648
926.931400 -0.080007
927.172000 0.093920
927.412700 0.085689
927.653300 0.228948
927.894000 -0.035975
928.134700 0.057690
928.375400 -0.102059
928.616100 0.114584
928.856800 0.028586
929.097500 0.047185
929.338200 0.430266
929.578900 -0.005585
929.819600 0.907496
930.060400 -0.199667
930.301100 0.161733
930.541900 -0.068119
930.782600 0.021827
931.023400 -0.042994
931.264200 0.001583
931.504900 0.249089
931.745700 0.137515
931.986500 -0.087358
932.227300 -0.135614
932.468100 0.252502
932.708900 0.081939
932.949800 0.048436
933.190600 0.083908
933.431400 0.017701
933.672300 -0.161759
933.913100 0.076345
934.154000 0.178186
934.394900 -0.119555
934.635800 0.133793
934.876600 0.095492
935.117500 -0.090912
935.358400 0.266351
935.599300 0.164049
935.840300 -0.075042
936.081200 0.075392
936.322100 0.074194
936.563000 0.496888
936.804000 0.521894
937.044900 -0.361429
937.285900 -0.160141
937.526900 3.301030
937.767800 0.500232
938.008800 -0.038826
938.249800 0.586541
938.490800 -0.061042
938.731800 0.561337
938.972800 2.001115
939.213800 -0.046413
939.454900 0.185017
939.695900 0.526490
939.936900 0.133250
940.178000 0.922094
940.419000 0.112124
940.660100 0.108247
940.901200 -0.107024
941.142200 -0.363566
941.383300 0.318498
941.624400 0.044739
941.865500 0.152495
942.106600 0.184799
942.347700 0.104460
942.588900 0.400983
942.830000 0.143099
943.071100 -0.074285
943.312300 2.258364
943.553400 -0.102162
943.794600 0.689385
944.035700 1.027526
944.276900 -0.242370
944.518100 0.651036
944.759300 0.552792
945.000500 0.307541
945.241700 0.268454
945.482900 0.251994
945.724100 0.596108
945.965300 0.243803
946.206600 0.284216
946.447800 -0.085269
946.689100 0.033046
946.930300 0.369525
947.171600 -0.004996
947.412800 0.908983
947.654100 0.621660
947.895400 -0.067708
948.136700 3.245019
948.378000 -0.411742
948.619300 0.369177
948.860600 0.129839
949.101900 0.602844
949.343300 -0.007087
949.584600 0.187970
949.825900 -0.147539
950.067300 0.304227
950.308600 0.179317
950.550000 0.070337
950.791400 2.710117
951.032700 -0.197668
951.274100 3.051538
951.515500 0.024916
951.756900 3.161967
951.998300 0.935389
952.239800 0.128833
952.481200 -0.163629
952.722600 -0.017545
952.964000 0.328276
953.205500 0.144152
953.446900 0.605628
953.688400 -0.022856
953.929900 0.438013
954.171300 -1.384180
954.412800 0.148953
954.654300 0.140695
954.895800 -0.094712
955.137300 2.840106
955.378800 -0.055678
955.620300 0.470015
955.861800 0.125420
956.103400 -0.009474
956.344900 0.441780
956.586500 1.345584
956.828000 0.054297
957.069600 0.714888
957.311100 -0.111921
957.552700 0.261475
957.794300 3.097604
958.035900 -0.308497
958.277500 -0.410067
958.519100 3.125806
958.760700 -0.114343
959.002300 2.632457
959.243900 3.145818
959.485600 2.918555
959.727200 -0.065625
959.968800 -0.404698
960.210500 -0.032490
960.452200 2.840733
960.693800 0.566896
960.935500 -2.888741
961.177200 3.129368
961.418900 -0.468347
961.660600 -0.057795
961.902300 0.322772
962.144000 -0.536226
962.385700 -0.142303
962.627400 0.381278
962.869200 -0.381039
963.110900 1.459823
963.352700 2.840106
963.594400 3.215373
963.836200 1.853437
964.077900 3.168203
964.319700 3.145818
964.561500 0.553883
964.803300 0.678351
965.045100 -0.251871
965.286900 -0.356912
965.528700 0.428889
965.770500 2.935507
966.012300 1.283301
966.254200 -0.336709
966.496000 -0.310811
966.737900 0.410252
966.979700 0.017773
967.221600 -0.212320
967.463400 0.234766
967.705300 3.152288
967.947200 0.093326
968.189100 0.119610
968.431000 -0.093209
968.672900 1.071808
968.914800 -0.024035
969.156700 0.225247
969.398700 -0.472132
969.640600 0.359022
969.882500 -0.234228
970.124500 2.575188
970.366400 3.209515
970.608400 0.382104
970.850400 -0.457495
971.092300 2.890421
971.334300 0.193765
971.576300 -0.289950
971.818300 -0.101221
972.060300 0.078881
972.302300 0.362859
972.544300 0.595856
972.786400 0.153902
973.028400 3.206826
973.270400 3.206826
973.512500 1.003245
973.754500 0.406435
973.996600 2.994757
974.238700 0.305669
974.480700 2.853698
974.722800 3.171434
974.964900 2.859739
975.207000 0.086974
975.449100 2.338456
975.691200 3.046885
975.933300 -0.447115
976.175500 -2.825426
976.417600 -0.134956
976.659700 3.082785
976.901900 3.021603
977.144000 0.292200
977.386200 2.745075
977.628300 0.832933
977.870500 1.993121
978.112700 2.776701
978.354900 -0.236019
978.597100 -0.266153
978.839300 0.854643
979.081500 -0.212286
979.323700 -2.618048
979.565900 0.143873
979.808200 0.342046
980.050400 3.226342
980.292600 3.008600
980.534900 0.313867
980.777100 2.971276
981.019400 -0.354733
981.261700 3.201124
981.504000 1.139374
981.746200 -0.464532
981.988500 -0.108301
982.230800 0.054992
982.473100 0.114473
982.715500 3.218010
982.957800 2.799341
983.200100 2.990339
983.442400 -0.050205
983.684800 -0.112882
983.927100 0.580791
984.169500 2.985426
984.411800 2.902547
984.654200 2.760422
984.896600 -0.017585
985.139000 1.230449
985.381400 0.166964
985.623800 0.341215
985.866200 -0.079119
986.108600 -1.544068
986.351000 -0.058698
986.593400 2.820201
986.835800 3.142702
987.078300 2.682145
987.320700 -0.227096
987.563200 -0.353526
987.805600 -0.588056
988.048100 3.189209
988.290600 0.188714
988.533100 -2.149219
988.775600 2.980458
989.018000 0.852827
989.260500 0.111848
989.503100 0.000000
989.745600 -1.101974
989.988100 -3.085647
990.230600 0.347096
990.473200 2.935507
990.715700 3.257679
990.958200 2.523746
991.200800 2.745075
991.443400 -3.070407
991.685900 0.961929
991.928500 -2.660865
992.171100 -0.825715
992.413700 3.125806
992.656300 0.462697
992.898900 0.979797
993.141500 3.078457
993.384100 0.196177
993.626700 0.254923
993.869400 2.760422
994.112000 0.259637
994.354700 3.165244
994.597300 3.030195
994.840000 0.000000
995.082600 2.480007
995.325300 2.269513
995.568000 2.884795
995.810700 2.127105
996.053400 -0.067706
996.296100 2.827369
996.538800 3.042969
996.781500 3.171141
997.024200 -0.884775
997.267000 2.791691
997.509700 0.568626
997.752400 -0.373438
997.995200 0.531325
998.237900 2.701568
998.480700 2.890421
998.723500 -2.390935
998.966200 0.205660
999.209000 0.000000
999.451800 0.152022
999.694600 3.025715
999.937400 -0.711320
1000.180200 0.273797
1000.423000 1.022222
1000.665900 2.907949
1000.908700 -0.385556
1001.151500 0.465090
1001.394400 0.354140
1001.637200 0.506748
1001.880100 -1.371068
1002.123000 0.244610
1002.365800 -0.039603
1002.608700 0.005752
1002.851600 2.913284
1003.094500 3.086360
1003.337400 -0.548929
1003.580300 -2.660865
1003.823200 2.414973
1004.066100 0.374252
1004.309100 0.172789
1004.552000 3.008600
1004.794900 2.847573
1005.037900 3.129368
1005.280800 2.806180
1005.523800 0.522689
1005.766700 0.103568
1006.009700 3.047275
1006.252700 -2.660865
1006.495700 2.812913
1006.738700 -2.390935
1006.981700 3.136086
1007.224700 2.653213
1007.467700 2.008600
1007.710700 2.610660
1007.953800 3.146128
1008.196800 2.736397
1008.439800 0.211269
1008.682900 2.691965
1008.925900 0.551062
1009.169000 0.087654
1009.412100 0.000000
1009.655100 -0.537942
1009.898200 0.468740
1010.141300 2.432969
1010.384400 0.038326
1010.627500 -0.275198
1010.870600 3.165244
1011.113700 3.086360
1011.356800 0.359304
1011.600000 -0.761118
1011.843100 0.276660
1012.086300 0.000000
1012.329400 0.208441
1012.572600 -2.766413
1012.815700 0.292542
1013.058900 0.000000
1013.302100 0.222136
1013.545200 2.960946
1013.788400 3.108227
1014.031600 0.000000
1014.274800 -0.010465
1014.518000 3.161967
1014.761300 0.559488
1015.004500 0.000000
1015.247700 0.514005
1015.490900 0.000000
1015.734200 3.239800
1015.977400 -0.552780
1016.220700 -1.146128
1016.464000 2.853090
1016.707200 -0.698409
1016.950500 2.378398
1017.193800 -0.076129
1017.437100 2.562293
1017.680400 0.234918
1017.923700 2.975891
1018.167000 3.231724
1018.410300 0.152091
1018.653600 -0.284018
1018.896900 3.021603
1019.140300 -0.124837
1019.383600 2.662758
1019.627000 2.950851
1019.870300 2.465383
1020.113700 0.228830
1020.357100 -0.221386
1020.600400 -0.349879
1020.843800 3.090258
1021.087200 3.287130
1021.330600 0.000000
1021.574000 0.371806
1021.817400 0.000000
1022.060800 0.000000
1022.304200 0.000000
1022.547700 2.902003
1022.791100 2.432969
1023.034500 2.812913
