# Wavelength	Absorbance
197.780200 0.109144
197.984200 2.907949
198.188200 3.093772
198.392200 2.682145
198.596300 0.108138
198.800300 -0.364984
199.004400 -0.285837
199.208500 -0.047527
199.412600 1.521429
199.616800 -0.207253
199.820900 1.210110
200.025100 2.877947
200.229200 0.145830
200.433400 0.032709
200.637600 2.745075
200.841800 2.902003
201.046100 0.307032
201.250300 0.301969
201.454600 0.421552
201.658900 0.451269
201.863100 -0.134611
202.067400 2.760422
202.271800 3.093772
202.476100 -0.006021
202.680500 -0.097427
202.884800 -0.023863
203.089200 3.034628
203.293600 2.745075
203.498000 0.176887
203.702400 -0.577354
203.906900 -0.663173
204.111300 -2.799341
204.315800 -0.207153
204.520300 0.326561
204.724800 -0.075990
204.929300 2.396199
205.133800 3.093772
205.338400 2.820201
205.543000 0.015491
205.747500 -0.000902
205.952100 -0.418360
206.156700 3.034628
206.361400 -2.217484
206.566000 2.187521
206.770600 -0.099907
206.975300 -0.619348
207.180000 -1.995635
207.384700 -0.181666
207.589400 -3.168497
207.794100 -0.203040
207.998900 -0.533729
208.203600 3.152288
208.408400 -0.100702
208.613200 0.502138
208.818000 -0.731056
209.022800 2.414973
209.227600 -0.093612
209.432500 2.907949
209.637300 0.051248
209.842200 2.294466
210.047100 -0.474351
210.252000 2.053078
210.456900 -0.112297
210.661800 0.256038
210.866800 3.104828
211.071800 0.554259
211.276700 2.907949
211.481700 2.736397
211.686700 -0.422921
211.891800 -0.272809
212.096800 3.336260
212.301800 -0.188760
212.506900 0.609900
212.712000 2.965672
212.917100 3.226342
213.122200 -0.461684
213.327300 -0.027081
213.532500 -2.813581
213.737600 -0.036589
213.942800 -1.352183
214.148000 -0.530822
214.353200 -3.204391
214.558400 2.956168
214.763600 0.289398
214.968900 0.463557
215.174100 3.104487
215.379400 -2.985426
215.584700 0.127624
215.790000 3.021603
215.995300 -0.201814
216.200700 -0.189016
216.406000 0.238302
216.611400 -0.358250
216.816800 -0.364873
217.022200 0.261341
217.227600 3.086360
217.433000 -0.458638
217.638400 3.047275
217.843900 -0.126666
218.049400 -2.158362
218.254800 3.275081
218.460300 3.008600
218.665900 0.164658
218.871400 0.612303
219.076900 0.111817
219.282500 0.410718
219.488100 0.091106
219.693600 0.140451
219.899200 0.237041
220.104900 0.622409
220.310500 -0.755451
220.516100 -2.995196
220.721800 -0.290109
220.927500 1.480081
221.133200 2.902003
221.338900 2.902003
221.544600 -0.261610
221.750300 1.592490
221.956100 2.907411
222.161800 -0.211772
222.367600 2.913284
222.573400 2.643453
222.779200 -3.122544
222.985000 -3.162266
223.190900 3.017451
223.396700 -0.374020
223.602600 -0.050590
223.808500 0.186168
224.014400 -0.092262
224.220300 -0.010453
224.426200 -0.403212
224.632200 0.231997
224.838100 -0.302146
225.044100 2.653213
225.250100 0.054684
225.456100 -0.099604
225.662100 -0.577594
225.868100 2.127105
226.074200 0.542552
226.280200 -1.908485
226.486300 0.247072
226.692400 -1.778151
226.898500 3.101403
227.104600 0.516315
227.310700 3.111934
227.516900 2.833784
227.723000 2.089905
227.929200 0.787470
228.135400 0.431364
228.341600 -0.218519
228.547800 3.108227
228.754100 -0.139124
228.960300 -0.539105
229.166600 -1.255273
229.372900 -0.131069
229.579100 2.683047
229.785500 0.127990
229.991800 -1.754785
230.198100 -0.293746
230.404500 1.963788
230.610800 3.003891
230.817200 0.000000
231.023600 2.890421
231.230000 2.683047
231.436400 0.338707
231.642900 0.075049
231.849300 -0.143817
232.055800 2.008600
232.262300 0.560792
232.468800 -0.199321
232.675300 -0.460698
232.881800 2.599883
233.088400 -0.310304
233.294900 -0.374568
233.501500 2.902003
233.708100 -2.866287
233.914700 -0.284233
234.121300 -2.866287
234.327900 -0.438936
234.534600 -0.313051
234.741300 -0.083095
234.947900 0.578034
235.154600 0.231558
235.361300 3.122544
235.568000 0.302684
235.774800 -0.332438
235.981500 -0.468307
236.188300 -2.913814
236.395100 -0.022450
236.601800 -2.827369
236.808700 -0.086329
237.015500 2.961421
237.222300 0.329952
237.429200 3.265290
237.636000 -0.205004
237.842900 -1.204120
238.049800 -0.182849
238.256700 2.653213
238.463600 0.032734
238.670600 2.970812
238.877500 3.161967
239.084500 -2.465383
239.291500 0.290835
239.498500 2.245513
239.705500 -0.360869
239.912500 -1.202177
240.119500 1.690196
240.326600 -0.384856
240.533700 0.000000
240.740700 0.188207
240.947800 -0.171927
241.154900 3.059185
241.362100 3.108227
241.569200 2.632457
241.776400 -0.278708
241.983500 0.233675
242.190700 3.206826
242.397900 0.000000
242.605100 -0.302914
242.812400 0.679226
243.019600 0.505896
243.226900 2.710117
243.434100 0.447901
243.641400 2.736397
243.848700 1.104352
244.056000 0.000000
244.263400 -0.652783
244.470700 0.147278
244.678100 0.216139
244.885400 0.727985
245.092800 -0.145224
245.300200 -0.852116
245.507600 3.330008
245.715100 3.034628
245.922500 -0.060591
246.130000 -1.554168
246.337500 -0.015103
246.544900 -0.286848
246.752400 0.188218
246.960000 3.165244
247.167500 0.571920
247.375000 -2.495544
247.582600 0.090208
247.790200 0.589826
247.997800 3.025715
248.205400 0.993413
248.413000 0.250525
248.620600 0.008210
248.828300 3.270213
249.035900 3.030600
249.243600 0.127630
249.451300 0.243378
249.659000 -0.039412
249.866700 0.431806
250.074500 3.226342
250.282200 3.189490
250.490000 0.236985
250.697800 2.846955
250.905600 2.480007
251.113400 2.929930
251.321200 -0.154025
251.529000 2.008600
251.736900 0.378196
251.944700 -0.034479
252.152600 0.304162
252.360500 2.710117
252.568400 -0.400576
252.776300 2.397940
252.984300 -0.054166
253.192200 0.489882
253.400200 -0.208012
253.608200 2.599883
253.816200 3.282396
254.024200 2.872739
254.232200 0.325068
254.440200 -1.591065
254.648300 -0.109144
254.856400 -0.223228
255.064400 -0.325429
255.272500 3.097604
255.480600 0.504945
255.688800 0.000000
255.896900 -0.257159
256.105100 1.126519
256.313200 0.000000
256.521400 0.669007
256.729600 -0.261638
256.937800 0.418617
257.146000 0.378256
257.354300 -2.495544
257.562500 0.521073
257.770800 0.000000
257.979100 -0.041946
258.187400 2.833784
258.395700 -0.046582
258.604000 3.034628
258.812400 -0.243188
259.020700 0.324557
259.229100 0.357375
259.437500 0.657828
259.645900 0.069015
259.854300 0.720159
260.062700 0.389085
260.271100 -0.022276
260.479600 0.939242
260.688100 -0.468307
260.896500 0.096910
261.105000 -1.046181
261.313500 -0.344965
261.522100 1.234217
261.730600 0.118591
261.939200 2.701568
262.147700 2.989895
262.356300 -0.039543
262.564900 2.536558
262.773500 2.907411
262.982200 -0.054713
263.190800 -3.221153
263.399500 0.888763
263.608100 -0.103997
263.816800 -0.284686
264.025500 0.618048
264.234200 -0.854896
264.442900 -1.109187
264.651700 3.097604
264.860400 0.264818
265.069200 0.451269
265.278000 0.981739
265.486800 -0.118230
265.695600 2.450249
265.904400 2.950851
266.113300 2.599883
266.322100 0.138537
266.531000 2.294466
266.739900 -0.700730
266.948800 0.575578
267.157700 0.486855
267.366600 0.531632
267.575500 2.799341
267.784500 -0.316059
267.993500 -0.052518
268.202400 0.068265
268.411400 -0.008997
268.620500 -0.401090
268.829500 0.153760
269.038500 2.123852
269.247600 0.048219
269.456600 -0.818769
269.665700 0.957072
269.874800 -0.155922
270.083900 -0.046192
270.293100 -1.778151
270.502200 -0.127637
270.711400 0.118505
270.920500 -0.322159
271.129700 1.394362
271.338900 0.957248
271.548100 2.691965
271.757300 -0.144446
271.966600 2.890421
272.175800 3.277609
272.385100 -0.035918
272.594400 -0.261167
272.803700 3.021603
273.013000 -0.186086
273.222300 1.086272
273.431600 0.134645
273.641000 0.776814
273.850400 -0.414043
274.059700 0.209564
274.269100 3.209515
274.478500 -0.150552
274.688000 -0.026496
274.897400 0.506452
275.106900 -1.551950
275.316300 3.055378
275.525800 -0.175471
275.735300 -2.683047
275.944800 1.057187
276.154300 2.662758
276.363900 -0.034438
276.573400 0.681744
276.783000 -0.081603
276.992600 2.846955
277.202200 -0.267645
277.411800 0.037483
277.621400 -0.447100
277.831000 0.055262
278.040700 0.048169
278.250300 0.296455
278.460000 0.021693
278.669700 2.980458
278.879400 -0.741672
279.089100 -0.044431
279.298900 0.406183
279.508600 0.100919
279.718400 0.672887
279.928100 0.000000
280.137900 0.184773
280.347700 2.632457
280.557600 -0.271033
280.767400 0.488789
280.977200 0.713794
281.187100 -2.827369
281.397000 3.089905
281.606900 0.000000
281.816800 0.216781
282.026700 -0.508352
282.236600 -0.220940
282.446600 2.924279
282.656500 0.000000
282.866500 2.791691
283.076500 -0.871594
283.286500 0.021156
283.496500 3.030600
283.706500 2.907411
283.916600 2.866287
284.126600 -2.021189
284.336700 2.966142
284.546800 0.063964
284.756900 0.756202
284.967000 2.896526
285.177100 -0.072641
285.387300 -2.784617
285.597400 0.417150
285.807600 0.536040
286.017800 0.192842
286.228000 -2.550228
286.438200 0.435037
286.648400 -0.258141
286.858700 0.643076
287.068900 -0.205719
287.279200 -0.224558
287.489500 -0.771701
287.699800 3.158965
287.910100 2.621176
288.120400 -0.215888
288.330800 2.220108
288.541100 0.289621
288.751500 2.217484
288.961900 -0.013788
289.172300 -2.269513
289.382700 -0.117751
289.593100 2.913284
289.803500 -2.465383
290.014000 -0.091056
290.224500 0.093043
290.434900 -3.022016
290.645400 -0.106517
290.855900 2.653213
291.066500 0.082795
291.277000 2.744293
291.487500 -0.555026
291.698100 2.768638
291.908700 0.329856
292.119300 1.050584
292.329900 0.825485
292.540500 0.510870
292.751100 0.065747
292.961800 0.000000
293.172400 0.092253
293.383100 -2.853698
293.593800 0.419569
293.804500 -0.517714
294.015200 0.055662
294.226000 0.000000
294.436700 -0.416297
294.647500 0.038918
294.858200 -0.212537
295.069000 0.411926
295.279800 0.212650
295.490600 0.000000
295.701500 -0.305929
295.912300 0.399738
296.123200 3.247728
296.334000 2.719331
296.544900 0.222687
296.755800 0.787923
296.966700 2.872156
297.177700 0.032147
297.388600 -0.208012
297.599500 -0.911186
297.810500 1.834986
298.021500 3.149219
298.232500 3.155640
298.443500 -1.212351
298.654500 0.627308
298.865600 0.660424
299.076600 0.262379
299.287700 0.000000
299.498800 0.705580
299.709900 0.743640
299.921000 3.234517
300.132100 0.769107
300.343200 3.270446
300.554400 1.514105
300.765500 2.853698
300.976700 -3.155943
301.187900 0.335110
301.399100 2.813581
301.610300 0.359990
301.821500 0.474318
302.032800 -0.024880
302.244100 3.017451
302.455300 -0.089070
302.666600 0.235964
302.877900 0.154828
303.089200 0.088422
303.300600 0.425166
303.511900 0.269244
303.723300 -0.184286
303.934600 0.057426
304.146000 -2.359293
304.357400 -0.250078
304.568800 0.163908
304.780300 0.179030
304.991700 -0.294564
305.203100 2.271842
305.414600 3.198382
305.626100 -0.065369
305.837600 0.298577
306.049100 2.775974
306.260600 0.314756
306.472200 2.245513
306.683700 -0.280639
306.895300 0.000000
307.106900 3.231724
307.318400 -0.175422
307.530100 0.071123
307.741700 -0.386387
307.953300 3.332236
308.165000 -2.945961
308.376600 0.193776
308.588300 3.242293
308.800000 0.764714
309.011700 0.749726
309.223400 -0.054893
309.435100 1.194977
309.646900 0.442166
309.858600 -0.213114
310.070400 0.172877
310.282200 1.447158
310.494000 2.031857
310.705800 0.038835
310.917600 3.047275
311.129500 0.138538
311.341300 0.746217
311.553200 3.180413
311.765100 0.339909
311.977000 3.142702
312.188900 0.547356
312.400800 3.030600
312.612700 -0.026180
312.824700 3.292034
313.036600 1.000603
313.248600 3.332034
313.460600 0.601625
313.672600 1.496930
313.884600 -0.043008
314.096700 2.599883
314.308700 0.925733
314.520800 3.104828
314.732800 3.402777
314.944900 0.622382
315.157000 0.563519
315.369200 0.157989
315.581300 0.060770
315.793400 -0.200486
316.005600 0.195742
316.217700 3.168203
316.429900 0.861474
316.642100 3.168203
316.854300 3.093772
317.066600 1.872380
317.278800 0.841952
317.491100 0.226147
317.703300 0.903290
317.915600 0.577115
318.127900 0.065006
318.340200 3.097604
318.552500 0.168557
318.764900 0.045128
318.977200 0.301506
319.189600 3.030195
319.401900 0.318759
319.614300 0.214419
319.826700 0.439472
320.039200 3.358886
320.251600 1.294812
320.464000 0.380091
320.676500 3.265290
320.889000 -0.761217
321.101400 1.079376
321.313900 3.310268
321.526500 0.560631
321.739000 3.376577
321.951500 0.304405
322.164100 3.132580
322.376600 1.142383
322.589200 0.484338
322.801800 3.327767
323.014400 3.360972
323.227000 0.488589
323.439700 1.846369
323.652300 0.568745
323.865000 3.374748
324.077700 3.558108
324.290400 0.525651
324.503100 0.197880
324.715800 3.399154
324.928500 0.133441
325.141200 0.470360
325.354000 0.391198
325.566800 0.839646
325.779600 3.531990
325.992400 0.424289
326.205200 0.143249
326.418000 0.633629
326.630800 0.458951
326.843700 0.780729
327.056600 3.478999
327.269400 0.753272
327.482300 3.531990
327.695200 3.385964
327.908200 0.230557
328.121100 0.487788
328.334000 0.931912
328.547000 0.917357
328.760000 0.661967
328.973000 0.956769
329.186000 3.564311
329.399000 0.224762
329.612000 3.715669
329.825100 0.715776
330.038100 0.185451
330.251200 0.280616
330.464300 0.528930
330.677400 0.357645
330.890500 0.814855
331.103600 0.773652
331.316700 0.751549
331.529900 1.880146
331.743100 0.607987
331.956200 3.661339
332.169400 0.621668
332.382600 0.419473
332.595900 2.149535
332.809100 1.696281
333.022300 0.768237
333.235600 0.586194
333.448900 3.655235
333.662200 0.459854
333.875500 3.666331
334.088800 3.518251
334.302100 1.422457
334.515400 1.123343
334.728800 0.492344
334.942200 1.267120
335.155500 0.594814
335.368900 3.756864
335.582300 1.423395
335.795800 1.459484
336.009200 0.614456
336.222700 1.657637
336.436100 3.725258
336.649600 0.955216
336.863100 0.891436
337.076600 0.896614
337.290100 0.765497
337.503600 3.672098
337.717200 0.549239
337.930700 0.820169
338.144300 1.061706
338.357900 3.656290
338.571500 0.327390
338.785100 3.703205
338.998700 0.457108
339.212400 3.815312
339.426000 3.712144
339.639700 1.397753
339.853300 0.573027
340.067000 1.732788
340.280700 0.578920
340.494500 1.126373
340.708200 0.769652
340.921900 0.774628
341.135700 0.685069
341.349500 1.641361
341.563300 1.873342
341.777100 3.818094
341.990900 0.494506
342.204700 3.816042
342.418500 0.883805
342.632400 0.775082
342.846300 0.825905
343.060100 3.693023
343.274000 0.598437
343.487900 3.871748
343.701900 3.795185
343.915800 0.952288
344.129700 1.513776
344.343700 3.778006
344.557700 2.108678
344.771700 2.031543
344.985700 1.364273
345.199700 1.436544
345.413700 1.358685
345.627700 1.874847
345.841800 1.206820
346.055900 3.854124
346.269900 0.694003
346.484000 1.145799
346.698100 3.825686
346.912300 1.065723
347.126400 1.136634
347.340600 3.899164
347.554700 0.852664
347.768900 3.886321
347.983100 0.920042
348.197300 1.048512
348.411500 0.700172
348.625700 3.866760
348.840000 0.672016
349.054200 1.012271
349.268500 3.952889
349.482800 0.902584
349.697100 3.921634
349.911400 1.412449
350.125700 0.906250
350.340000 0.898851
350.554400 0.970805
350.768700 1.034285
350.983100 0.816417
351.197500 1.314058
351.411900 1.340985
351.626300 1.019410
351.840700 1.439285
352.055200 1.436422
352.269600 0.896137
352.484100 0.928836
352.698600 1.076258
352.913100 0.857839
353.127600 1.079534
353.342100 0.832656
353.556600 3.994713
353.771200 4.007534
353.985800 1.448099
354.200300 2.675626
354.414900 0.909580
354.629500 0.813021
354.844100 1.372059
355.058800 3.971879
355.273400 1.035861
355.488100 3.989138
355.702700 3.991448
355.917400 1.620856
356.132100 0.587879
356.346800 3.982000
356.561500 4.004364
356.776300 0.935310
356.991000 4.003891
357.205800 3.987264
357.420600 0.983881
357.635300 0.734072
357.850100 1.443429
358.065000 3.991935
358.279800 1.890644
358.494600 1.742511
358.709500 4.012879
358.924300 3.975799
359.139200 4.039216
359.354100 0.838675
359.569000 4.007534
359.783900 1.323563
359.998900 3.957464
360.213800 1.179213
360.428800 1.116449
360.643800 0.873932
360.858700 1.385758
361.073700 0.976715
361.288800 1.340574
361.503800 1.080491
361.718800 1.009770
361.933900 1.143036
362.148900 0.706385
362.364000 3.994713
362.579100 4.062845
362.794200 1.359534
363.009300 4.072250
363.224500 1.261829
363.439600 0.881266
363.654800 4.034989
363.869900 2.437100
364.085100 0.997931
364.300300 0.824008
364.515500 4.049102
364.730800 0.825553
364.946000 4.055608
365.161200 1.615356
365.376500 4.086360
365.591800 1.024205
365.807100 4.020403
366.022400 1.001069
366.237700 0.948654
366.453000 1.142671
366.668400 4.089375
366.883700 1.000300
367.099100 4.077622
367.314500 0.736885
367.529900 1.056153
367.745300 0.971663
367.960700 1.050358
368.176100 1.627688
368.391600 4.101850
368.607000 1.701335
368.822500 1.176393
369.038000 1.574985
369.253500 1.398837
369.469000 1.370905
369.684500 4.136974
369.900100 1.155591
370.115600 4.067926
370.331200 1.131705
370.546800 1.081993
370.762400 1.217452
370.978000 1.194176
371.193600 0.911783
371.409200 1.258510
371.624900 1.073993
371.840500 0.971078
372.056200 4.129561
372.271900 4.101128
372.487600 1.395566
372.703300 1.446868
372.919000 1.048764
373.134800 4.137671
373.350500 1.167493
373.566300 4.154637
373.782000 1.477662
373.997800 4.169498
374.213600 2.389786
374.429400 4.167613
374.645300 0.876935
374.861100 1.567434
375.077000 1.197538
375.292800 2.404178
375.508700 1.103676
375.724600 4.210586
375.940500 1.404823
376.156400 1.108845
376.372400 1.296407
376.588300 1.391297
376.804300 4.234720
377.020300 1.978068
377.236200 2.249726
377.452200 4.269816
377.668200 1.542288
377.884300 1.432988
378.100300 1.757721
378.316400 1.555483
378.532400 1.518212
378.748500 1.410935
378.964600 1.162925
379.180700 1.589062
379.396800 1.030835
379.612900 4.277861
379.829100 1.812849
380.045200 4.285760
380.261400 1.311670
380.477600 1.255752
380.693800 2.061818
380.910000 1.319122
381.126200 4.287174
381.342400 4.319959
381.558700 0.993288
381.774900 1.113966
381.991200 1.729130
382.207500 4.314668
382.423800 4.339054
382.640100 1.247432
382.856400 1.185393
383.072800 1.394706
383.289100 1.346721
383.505500 4.335458
383.721900 1.102469
383.938200 2.561320
384.154600 1.912130
384.371100 1.459257
384.587500 3.093519
384.803900 4.366890
385.020400 1.619112
385.236800 4.356332
385.453300 1.369987
385.669800 4.340702
385.886300 1.274029
386.102800 1.384229
386.319400 0.926863
386.535900 1.405831
386.752500 1.788698
386.969000 1.186973
387.185600 1.534755
387.402200 1.475414
387.618800 1.465065
387.835500 1.597016
388.052100 1.111725
388.268700 1.152558
388.485400 1.144602
388.702100 1.384307
388.918800 0.961158
389.135500 0.973266
389.352200 1.001055
389.568900 1.082961
389.785600 1.295757
390.002400 1.380874
390.219200 0.879543
390.435900 1.041798
390.652700 0.916437
390.869500 1.112144
391.086300 0.919584
391.303200 1.143463
391.520000 0.951115
391.736900 1.046517
391.953700 0.914136
392.170600 1.121363
392.387500 0.995460
392.604400 0.895097
392.821300 0.946064
393.038300 0.928777
393.255200 0.764601
393.472200 0.958288
393.689100 0.636185
393.906100 0.979809
394.123100 0.825269
394.340100 0.734995
394.557200 0.715788
394.774200 0.784484
394.991200 0.875393
395.208300 0.772224
395.425400 0.573873
395.642500 0.742332
395.859600 0.637497
396.076700 0.758802
396.293800 0.644578
396.510900 0.648211
396.728100 0.659377
396.945300 0.784045
397.162400 0.685561
397.379600 0.660617
397.596800 0.551574
397.814000 0.594572
398.031300 0.605875
398.248500 0.589576
398.465800 0.556797
398.683000 0.652466
398.900300 0.576692
399.117600 0.520853
399.334900 0.532649
399.552200 0.523886
399.769600 0.506373
399.986900 0.601933
400.204300 0.484783
400.421600 0.510536
400.639000 0.517658
400.856400 0.489476
401.073800 0.475015
401.291200 0.521049
401.508700 0.457372
401.726100 0.471138
401.943600 0.417797
402.161000 0.476386
402.378500 0.449361
402.596000 0.411515
402.813500 0.366892
403.031000 0.479869
403.248600 0.408762
403.466100 0.545014
403.683700 0.395343
403.901300 0.450549
404.118900 0.449703
404.336500 0.486750
404.554100 0.411679
404.771700 0.396687
404.989300 0.379909
405.207000 0.383697
405.424600 0.411386
405.642300 0.388510
405.860000 0.370795
406.077700 0.383762
406.295400 0.348589
406.513100 0.356656
406.730900 0.365681
406.948600 0.328366
407.166400 0.387005
407.384200 0.363259
407.602000 0.285899
407.819800 0.323936
408.037600 0.339452
408.255400 0.336168
408.473300 0.334173
408.691100 0.308667
408.909000 0.299888
409.126900 0.320333
409.344800 0.306251
409.562700 0.276172
409.780600 0.352595
409.998500 0.328004
410.216500 0.305034
410.434400 0.272919
410.652400 0.310228
410.870400 0.294782
411.088400 0.290874
411.306400 0.299360
411.524400 0.283130
411.742400 0.275658
411.960500 0.273928
412.178500 0.263063
412.396600 0.275267
412.614700 0.277302
412.832800 0.248777
413.050900 0.288115
413.269000 0.259936
413.487100 0.245205
413.705300 0.265570
413.923400 0.345961
414.141600 0.249194
414.359800 0.266550
414.578000 0.241498
414.796200 0.267321
415.014400 0.276859
415.232600 0.236631
415.450900 0.248149
415.669200 0.253292
415.887400 0.242852
416.105700 0.251891
416.324000 0.222523
416.542300 0.238860
416.760600 0.248013
416.979000 0.244199
417.197300 0.240064
417.415700 0.255558
417.634100 0.243522
417.852400 0.212547
418.070800 0.259936
418.289300 0.230221
418.507700 0.218940
418.726100 0.250182
418.944600 0.216395
419.163000 0.239774
419.381500 0.200928
419.600000 0.247374
419.818500 0.245751
420.037000 0.220108
420.255500 0.204923
420.474100 0.202832
420.692600 0.212826
420.911200 0.196788
421.129800 0.214754
421.348300 0.220558
421.566900 0.204413
421.785600 0.201525
422.004200 0.210542
422.222800 0.208566
422.441500 0.226709
422.660100 0.190438
422.878800 0.220162
423.097500 0.212457
423.316200 0.207229
423.534900 0.208815
423.753600 0.221469
423.972400 0.210571
424.191100 0.206636
424.409900 0.180633
424.628700 0.188115
424.847500 0.239297
425.066300 0.224824
425.285100 0.209005
425.503900 0.198257
425.722800 0.214753
425.941600 0.211464
426.160500 0.203492
426.379300 0.218151
426.598200 0.207968
426.817100 0.208673
427.036100 0.217132
427.255000 0.225343
427.473900 0.189962
427.692900 0.247194
427.911800 0.222261
428.130800 0.205157
428.349800 0.225806
428.568800 0.227778
428.787800 0.182221
429.006800 0.186803
429.225900 0.176610
429.444900 0.229310
429.664000 0.179684
429.883100 0.259751
430.102200 0.238879
430.321300 0.195481
430.540400 0.210903
430.759500 0.188940
430.978700 0.194119
431.197800 0.229379
431.417000 0.197711
431.636200 0.178740
431.855300 0.194279
432.074500 0.198535
432.293800 0.213682
432.513000 0.235320
432.732200 0.159793
432.951500 0.223587
433.170700 0.201279
433.390000 0.212561
433.609300 0.230949
433.828600 0.209169
434.047900 0.204838
434.267300 0.220385
434.486600 0.186721
434.705900 0.236076
434.925300 0.237941
435.144700 0.201175
435.364100 0.214705
435.583500 0.230233
435.802900 0.222376
436.022300 0.192098
436.241800 0.196212
436.461200 0.211697
436.680700 0.215788
436.900100 0.243340
437.119600 0.260599
437.339100 0.214241
437.558600 0.218892
437.778200 0.213352
437.997700 0.206998
438.217300 0.233595
438.436800 0.184061
438.656400 0.230370
438.876000 0.234728
439.095600 0.212309
439.315200 0.228001
439.534800 0.218019
439.754500 0.253769
439.974100 0.267253
440.193800 0.253030
440.413500 0.244927
440.633100 0.210022
440.852800 0.271814
441.072500 0.262126
441.292300 0.254661
441.512000 0.256624
441.731800 0.248397
441.951500 0.234594
442.171300 0.256535
442.391100 0.237774
442.610900 0.266062
442.830700 0.255266
443.050500 0.255867
443.270300 0.222619
443.490200 0.247642
443.710100 0.235349
443.929900 0.268535
444.149800 0.251161
444.369700 0.272448
444.589600 0.239331
444.809500 0.279241
445.029500 0.303117
445.249400 0.236034
445.469400 0.266435
445.689400 0.302744
445.909300 0.284809
446.129300 0.258860
446.349300 0.276291
446.569400 0.302534
446.789400 0.279844
447.009400 0.302311
447.229500 0.275026
447.449600 0.285719
447.669600 0.309873
447.889700 0.287087
448.109800 0.285259
448.330000 0.268452
448.550100 0.309197
448.770200 0.284555
448.990400 0.274740
449.210600 0.314462
449.430700 0.287085
449.650900 0.317922
449.871100 0.293460
450.091400 0.286531
450.311600 0.314423
450.531800 0.308824
450.752100 0.295665
450.972400 0.302322
451.192600 0.294095
451.412900 0.327662
451.633200 0.304061
451.853500 0.347142
452.073900 0.331184
452.294200 0.355628
452.514600 0.318291
452.734900 0.326801
452.955300 0.349199
453.175700 0.314114
453.396100 0.344365
453.616500 0.328058
453.836900 0.328099
454.057400 0.347665
454.277800 0.333418
454.498300 0.367209
454.718800 0.366389
454.939300 0.343983
455.159700 0.378180
455.380300 0.372133
455.600800 0.354886
455.821300 0.374922
456.041900 0.382227
456.262400 0.398332
456.483000 0.404557
456.703600 0.321784
456.924200 0.406270
457.144800 0.377890
457.365400 0.364053
457.586000 0.387217
457.806700 0.372987
458.027400 0.377925
458.248000 0.361976
458.468700 0.400700
458.689400 0.380464
458.910100 0.450225
459.130800 0.401410
459.351600 0.379504
459.572300 0.395339
459.793100 0.419120
460.013800 0.404120
460.234600 0.428217
460.455400 0.397541
460.676200 0.451028
460.897000 0.441965
461.117800 0.427999
461.338700 0.435652
461.559500 0.436806
461.780400 0.444737
462.001300 0.490493
462.222200 0.443495
462.443100 0.419537
462.664000 0.510883
462.884900 0.477772
463.105900 0.474686
463.326800 0.480502
463.547800 0.498128
463.768700 0.479521
463.989700 0.474325
464.210700 0.460998
464.431700 0.545646
464.652800 0.469854
464.873800 0.529399
465.094800 0.534540
465.315900 0.514713
465.537000 0.539510
465.758100 0.517305
465.979200 0.538188
466.200300 0.539428
466.421400 0.493452
466.642500 0.499716
466.863700 0.542966
467.084800 0.521112
467.306000 0.554144
467.527200 0.568308
467.748400 0.590014
467.969600 0.578588
468.190800 0.565400
468.412000 0.564471
468.633300 0.571766
468.854500 0.593909
469.075800 0.536224
469.297000 0.568076
469.518300 0.585667
469.739600 0.561198
469.961000 0.593167
470.182300 0.586852
470.403600 0.611743
470.625000 0.569782
470.846300 0.679049
471.067700 0.616221
471.289100 0.621786
471.510500 0.646685
471.731900 0.658221
471.953300 0.620061
472.174800 0.598542
472.396200 0.641378
472.617700 0.624086
472.839100 0.616524
473.060600 0.653836
473.282100 0.689269
473.503600 0.583248
473.725100 0.604210
473.946700 0.665594
474.168200 0.635686
474.389800 0.569884
474.611300 0.729592
474.832900 0.653255
475.054500 0.708636
475.276100 0.753255
475.497700 0.693863
475.719300 0.639409
475.941000 0.694123
476.162600 0.675218
476.384300 0.755858
476.606000 0.670682
476.827700 0.721466
477.049400 0.771554
477.271100 0.682703
477.492800 0.771396
477.714500 0.724350
477.936300 0.770173
478.158000 0.765757
478.379800 0.808196
478.601600 0.856884
478.823400 0.711220
479.045200 0.792249
479.267000 0.763130
479.488800 0.709386
479.710700 0.756051
479.932500 0.890445
480.154400 0.820260
480.376300 0.792461
480.598200 0.856296
480.820100 0.745633
481.042000 0.797160
481.263900 0.803894
481.485900 0.826442
481.707800 0.794355
481.929800 0.828195
482.151700 0.791312
482.373700 0.945550
482.595700 0.900877
482.817700 0.887982
483.039800 0.907813
483.261800 0.883416
483.483800 1.006149
483.705900 0.874876
483.928000 0.851066
484.150100 0.956580
484.372100 0.965532
484.594300 0.878049
484.816400 0.976646
485.038500 0.925065
485.260600 0.890626
485.482800 0.967946
485.705000 0.934632
485.927100 0.981412
486.149300 0.961048
486.371500 0.935267
486.593700 0.937446
486.816000 0.954132
487.038200 0.923149
487.260500 0.930487
487.482700 0.950030
487.705000 0.895302
487.927300 0.962329
488.149600 0.884163
488.371900 1.032627
488.594200 1.091758
488.816500 1.031591
489.038900 0.890760
489.261200 1.008248
489.483600 0.944375
489.706000 1.006936
489.928400 0.901121
490.150800 1.105151
490.373200 1.029264
490.595600 0.997553
490.818000 1.084010
491.040500 0.983714
491.263000 1.037163
491.485400 1.051396
491.707900 0.952861
491.930400 0.991038
492.152900 0.922187
492.375500 1.029750
492.598000 1.010502
492.820500 0.900287
493.043100 0.960945
493.265700 1.196427
493.488200 1.016117
493.710800 1.030601
493.933400 0.947433
494.156100 1.202306
494.378700 0.937556
494.601300 1.219122
494.824000 1.043828
495.046600 1.039483
495.269300 1.133387
495.492000 1.077912
495.714700 0.968044
495.937400 1.132776
496.160100 1.003196
496.382900 1.266671
496.605600 1.069450
496.828400 1.157075
497.051100 1.238565
497.273900 1.104644
497.496700 1.187096
497.719500 1.118049
497.942300 1.050416
498.165200 1.019029
498.388000 1.025628
498.610900 0.993108
498.833700 1.029779
499.056600 1.086965
499.279500 1.208047
499.502400 1.179498
499.725300 1.160865
499.948200 1.183996
500.171200 1.093381
500.394100 1.160006
500.617100 1.034817
500.840000 1.247307
501.063000 1.151160
501.286000 1.259991
501.509000 1.058801
501.732000 1.241156
501.955100 1.332109
502.178100 1.249239
502.401200 1.086705
502.624200 1.258144
502.847300 1.099713
503.070400 0.982475
503.293500 1.058947
503.516600 1.040400
503.739700 1.064603
503.962800 1.263907
504.186000 1.175991
504.409200 1.168412
504.632300 1.272292
504.855500 1.096436
505.078700 1.136492
505.301900 1.223226
505.525100 1.252511
505.748300 1.478051
505.971600 1.072368
506.194800 1.048508
506.418100 0.960823
506.641400 1.480153
506.864700 1.018632
507.088000 1.027006
507.311300 1.025337
507.534600 1.108715
507.757900 1.288899
507.981300 1.192981
508.204600 1.078301
508.428000 1.398530
508.651400 1.189441
508.874800 1.092436
509.098200 1.215098
509.321600 1.174587
509.545000 1.112794
509.768500 1.194923
509.991900 1.187498
510.215400 1.521229
510.438800 1.271271
510.662300 1.165119
510.885800 1.198161
511.109300 1.150784
511.332900 1.251034
511.556400 1.127434
511.779900 1.105361
512.003500 1.240170
512.227000 1.157848
512.450600 1.114062
512.674200 1.139557
512.897800 1.189077
513.121400 1.070131
513.345100 1.353302
513.568700 1.164572
513.792300 1.130800
514.016000 1.215117
514.239700 1.242128
514.463400 1.167998
514.687100 1.189513
514.910800 1.089587
515.134500 1.011943
515.358200 0.996951
515.581900 1.048366
515.805700 1.001902
516.029500 1.272056
516.253200 1.077270
516.477000 1.328786
516.700800 1.001299
516.924600 1.095919
517.148500 1.180202
517.372300 1.183775
517.596100 0.907749
517.820000 1.066533
518.043900 1.078077
518.267700 1.049817
518.491600 1.001208
518.715500 0.968589
518.939500 1.049561
519.163400 1.035268
519.387300 0.994017
519.611300 1.039709
519.835200 1.077203
520.059200 1.008192
520.283200 0.928085
520.507200 1.243366
520.731200 1.294732
520.955200 0.961720
521.179200 1.104682
521.403300 1.002122
521.627300 1.129461
521.851400 1.063334
522.075500 0.872725
522.299600 1.150508
522.523700 0.988455
522.747800 1.027105
522.971900 1.113754
523.196000 0.961618
523.420200 1.034222
523.644300 1.054651
523.868500 0.874332
524.092700 1.014965
524.316900 1.169236
524.541100 0.908252
524.765300 0.943311
524.989500 0.941688
525.213800 0.992216
525.438000 1.028793
525.662300 1.003062
525.886500 0.825594
526.110800 0.935268
526.335100 0.911652
526.559400 1.000196
526.783700 0.909402
527.008100 0.999611
527.232400 0.921295
527.456800 1.027949
527.681100 0.866752
527.905500 1.039273
528.129900 1.016882
528.354300 0.882753
528.578700 0.930081
528.803100 0.813117
529.027600 0.857350
529.252000 1.039963
529.476500 0.863739
529.700900 0.911353
529.925400 0.904692
530.149900 0.860703
530.374400 0.839996
530.598900 0.794513
530.823400 0.857527
531.048000 0.919620
531.272500 0.817096
531.497100 0.853553
531.721700 0.794103
531.946200 0.753684
532.170800 0.793861
532.395400 0.781261
532.620000 0.818084
532.844700 0.802322
533.069300 0.840898
533.294000 0.702483
533.518600 0.777823
533.743300 0.798897
533.968000 0.808016
534.192700 0.666288
534.417400 0.781767
534.642100 0.732275
534.866800 0.777829
535.091600 0.735968
535.316300 0.736992
535.541100 0.742403
535.765900 0.662687
535.990700 0.816355
536.215500 0.718289
536.440300 0.667037
536.665100 0.691500
536.889900 0.753468
537.114800 0.644814
537.339600 0.730259
537.564500 0.695882
537.789400 0.688112
538.014300 0.701579
538.239200 0.660342
538.464100 0.706310
538.689000 0.651098
538.913900 0.664885
539.138900 0.668274
539.363800 0.631728
539.588800 0.661127
539.813800 0.691715
540.038800 0.651102
540.263800 0.666224
540.488800 0.608199
540.713800 0.620762
540.938900 0.566135
541.163900 0.619584
541.389000 0.570486
541.614000 0.600618
541.839100 0.620149
542.064200 0.587471
542.289300 0.612451
542.514400 0.577082
542.739600 0.545551
542.964700 0.496958
543.189900 0.618932
543.415000 0.534705
543.640200 0.562743
543.865400 0.500821
544.090600 0.542876
544.315800 0.523509
544.541000 0.587903
544.766200 0.555626
544.991500 0.505528
545.216700 0.527521
545.442000 0.506351
545.667300 0.538909
545.892600 0.467754
546.117900 0.461408
546.343200 0.482972
546.568500 0.478504
546.793800 0.520201
547.019200 0.500402
547.244500 0.494618
547.469900 0.442234
547.695300 0.445164
547.920600 0.477573
548.146000 0.461135
548.371500 0.464171
548.596900 0.448932
548.822300 0.402773
549.047800 0.416921
549.273200 0.481415
549.498700 0.385612
549.724200 0.427275
549.949600 0.403235
550.175100 0.395718
550.400700 0.353099
550.626200 0.391280
550.851700 0.424204
551.077300 0.388422
551.302800 0.380814
551.528400 0.342678
551.754000 0.394692
551.979600 0.382906
552.205200 0.385277
552.430800 0.357058
552.656400 0.368646
552.882000 0.373646
553.107700 0.380060
553.333300 0.360050
553.559000 0.352923
553.784700 0.356375
554.010400 0.327667
554.236100 0.364518
554.461800 0.361405
554.687500 0.343104
554.913200 0.358428
555.139000 0.327450
555.364800 0.328490
555.590500 0.312628
555.816300 0.313064
556.042100 0.322817
556.267900 0.266138
556.493700 0.298733
556.719500 0.279198
556.945400 0.301055
557.171200 0.324108
557.397100 0.290549
557.623000 0.285192
557.848800 0.262247
558.074700 0.296898
558.300600 0.276703
558.526600 0.249109
558.752500 0.282189
558.978400 0.267586
559.204400 0.264897
559.430300 0.253853
559.656300 0.243045
559.882300 0.233257
560.108300 0.225315
560.334300 0.259681
560.560300 0.254322
560.786300 0.231044
561.012400 0.232006
561.238400 0.216749
561.464500 0.242517
561.690500 0.248371
561.916600 0.215629
562.142700 0.200812
562.368800 0.197669
562.594900 0.255430
562.821100 0.221167
563.047200 0.197148
563.273300 0.224679
563.499500 0.191134
563.725700 0.216220
563.951900 0.188062
564.178100 0.221161
564.404300 0.187193
564.630500 0.185805
564.856700 0.198152
565.082900 0.195981
565.309200 0.162705
565.535500 0.171572
565.761700 0.189330
565.988000 0.195564
566.214300 0.158213
566.440600 0.142231
566.666900 0.180506
566.893200 0.183162
567.119600 0.164737
567.345900 0.184165
567.572300 0.171241
567.798700 0.157652
568.025000 0.152248
568.251400 0.184234
568.477800 0.150886
568.704300 0.147901
568.930700 0.158017
569.157100 0.157205
569.383600 0.145998
569.610000 0.134300
569.836500 0.135126
570.063000 0.148734
570.289500 0.151689
570.516000 0.155508
570.742500 0.122236
570.969000 0.143060
571.195600 0.140592
571.422100 0.127670
571.648700 0.130117
571.875200 0.140315
572.101800 0.130483
572.328400 0.134295
572.555000 0.136598
572.781600 0.138513
573.008200 0.131818
573.234900 0.129102
573.461500 0.125566
573.688200 0.118519
573.914900 0.125095
574.141500 0.111928
574.368200 0.113946
574.594900 0.122359
574.821600 0.110325
575.048400 0.108294
575.275100 0.112605
575.501800 0.117651
575.728600 0.105190
575.955400 0.098216
576.182100 0.118310
576.408900 0.111418
576.635700 0.106693
576.862600 0.102473
577.089400 0.092233
577.316200 0.090111
577.543100 0.097348
577.769900 0.096065
577.996800 0.098167
578.223700 0.099757
578.450500 0.088524
578.677400 0.089124
578.904400 0.086819
579.131300 0.089830
579.358200 0.081093
579.585100 0.087331
579.812100 0.077333
580.039100 0.078986
580.266000 0.080229
580.493000 0.082986
580.720000 0.072528
580.947000 0.081303
581.174100 0.074575
581.401100 0.081799
581.628100 0.078213
581.855200 0.069033
582.082200 0.073595
582.309300 0.072500
582.536400 0.064012
582.763500 0.059533
582.990600 0.058510
583.217700 0.063373
583.444900 0.052101
583.672000 0.060043
583.899100 0.054595
584.126300 0.058138
584.353500 0.054598
584.580700 0.052031
584.807900 0.062464
585.035100 0.058546
585.262300 0.066104
585.489500 0.064468
585.716700 0.066324
585.944000 0.063878
586.171300 0.053064
586.398500 0.051985
586.625800 0.056751
586.853100 0.045576
587.080400 0.049248
587.307700 0.038663
587.535000 0.051372
587.762400 0.038899
587.989700 0.041317
588.217100 0.045942
588.444500 0.048651
588.671800 0.038188
588.899200 0.048021
589.126600 0.037869
589.354000 0.038707
589.581500 0.041590
589.808900 0.048550
590.036300 0.043114
590.263800 0.037940
590.491300 0.034740
590.718700 0.030329
590.946200 0.039104
591.173700 0.044376
591.401200 0.047828
591.628800 0.048117
591.856300 0.043616
592.083800 0.044064
592.311400 0.025914
592.538900 0.040800
592.766500 0.044065
592.994100 0.039861
593.221700 0.044530
593.449300 0.048914
593.676900 0.030563
593.904600 0.046521
594.132200 0.036150
594.359800 0.025069
594.587500 0.030469
594.815200 0.027359
595.042900 0.036886
595.270500 0.037133
595.498300 0.030896
595.726000 0.034797
595.953700 0.040318
596.181400 0.024978
596.409200 0.029099
596.636900 0.043751
596.864700 0.037581
597.092500 0.019922
597.320300 0.025147
597.548100 0.033456
597.775900 0.040647
598.003700 0.029587
598.231500 0.031587
598.459400 0.038589
598.687200 0.051043
598.915100 0.044575
599.143000 0.034652
599.370900 0.037860
599.598800 0.027295
599.826700 0.025107
600.054600 0.039854
600.282500 0.036131
600.510500 0.022354
600.738400 0.026049
600.966400 0.019952
601.194400 0.020650
601.422300 0.010155
601.650300 0.017785
601.878300 0.010175
602.106400 0.032849
602.334400 0.026620
602.562400 0.030261
602.790500 0.024559
603.018500 0.018662
603.246600 0.024826
603.474700 0.025169
603.702800 0.018064
603.930900 0.028285
604.159000 0.022410
604.387100 0.027469
604.615200 0.016393
604.843400 0.029898
605.071500 0.024303
605.299700 0.017337
605.527900 0.017330
605.756100 0.023060
605.984300 0.011684
606.212500 0.010184
606.440700 0.004546
606.668900 0.006229
606.897200 0.012399
607.125400 0.014874
607.353700 0.017508
607.581900 0.018630
607.810200 0.015471
608.038500 0.009918
608.266800 0.009684
608.495100 -0.005720
608.723500 -0.006411
608.951800 0.012420
609.180100 0.005492
609.408500 0.007329
609.636900 0.008873
609.865300 0.011403
610.093600 0.018824
610.322000 0.019690
610.550500 0.013286
610.778900 0.016241
611.007300 0.004325
611.235700 0.019934
611.464200 0.022856
611.692700 0.009647
611.921100 0.017171
612.149600 0.018334
612.378100 0.016137
612.606600 0.018881
612.835100 0.022861
613.063700 0.008294
613.292200 0.013164
613.520800 0.011849
613.749300 0.011557
613.977900 0.011581
614.206500 0.013411
614.435100 0.014007
614.663700 0.018325
614.892300 0.015789
615.120900 0.006808
615.349500 0.019830
615.578200 0.004712
615.806800 0.010238
616.035500 0.008274
616.264200 0.006358
616.492900 0.014774
616.721600 0.009459
616.950300 0.000341
617.179000 0.009536
617.407700 -0.005060
617.636500 -0.000798
617.865200 0.017633
618.094000 -0.006632
618.322700 -0.000435
618.551500 -0.003295
618.780300 0.003387
619.009100 0.006183
619.237900 0.013461
619.466700 -0.001553
619.695600 0.005553
619.924400 0.009291
620.153300 0.010294
620.382100 0.009526
620.611000 0.007218
620.839900 -0.001759
621.068800 -0.021882
621.297700 0.013456
621.526600 -0.009956
621.755600 0.008377
621.984500 0.009091
622.213500 0.000988
622.442400 0.009669
622.671400 0.016614
622.900400 -0.003254
623.129400 -0.000115
623.358400 0.007893
623.587400 0.001638
623.816400 -0.003291
624.045400 0.009787
624.274500 0.003159
624.503500 -0.003564
624.732600 0.004413
624.961700 0.015006
625.190800 -0.008928
625.419900 -0.010698
625.649000 -0.000923
625.878100 0.013271
626.107200 -0.006429
626.336400 -0.014533
626.565500 0.008444
626.794700 0.009535
627.023800 -0.007388
627.253000 0.001466
627.482200 -0.000455
627.711400 -0.002447
627.940600 0.008934
628.169800 -0.016305
628.399100 -0.018038
628.628300 -0.014097
628.857600 -0.013037
629.086800 0.002975
629.316100 -0.013226
629.545400 -0.006662
629.774700 0.022795
630.004000 -0.004905
630.233300 0.006462
630.462600 0.003092
630.692000 -0.000111
630.921300 0.005407
631.150700 0.020205
631.380100 -0.000266
631.609400 0.009863
631.838800 0.006695
632.068200 0.008535
632.297600 -0.006983
632.527100 -0.010064
632.756500 0.005703
632.985900 -0.001451
633.215400 -0.003230
633.444800 0.007182
633.674300 0.008754
633.903800 -0.009333
634.133300 0.007615
634.362800 0.000258
634.592300 -0.011917
634.821800 -0.011340
635.051400 0.003792
635.280900 0.008938
635.510500 -0.035121
635.740000 -0.009786
635.969600 0.003814
636.199200 0.001599
636.428800 -0.012024
636.658400 0.008211
636.888000 -0.002781
637.117700 0.011541
637.347300 0.009716
637.577000 0.015515
637.806600 0.004899
638.036300 -0.005353
638.266000 0.009642
638.495700 0.009599
638.725400 0.001422
638.955100 0.004289
639.184800 -0.029480
639.414500 -0.018172
639.644300 0.004613
639.874000 -0.010983
640.103800 0.009108
640.333600 0.004046
640.563300 0.018646
640.793100 0.017648
641.022900 0.020518
641.252800 -0.014927
641.482600 -0.006356
641.712400 -0.005332
641.942300 -0.009030
642.172100 0.013272
642.402000 0.006868
642.631900 -0.004173
642.861700 -0.007751
643.091600 0.033219
643.321600 0.002690
643.551500 -0.004275
643.781400 0.019400
644.011300 -0.016064
644.241300 -0.000257
644.471200 -0.036036
644.701200 -0.022830
644.931200 0.015936
645.161200 0.020559
645.391200 -0.045320
645.621200 -0.008280
645.851200 -0.012204
646.081200 -0.017476
646.311300 0.061910
646.541300 0.025995
646.771400 -0.015180
647.001500 -0.002346
647.231600 -0.000267
647.461600 0.014575
647.691800 0.010719
647.921900 -0.011010
648.152000 0.002446
648.382100 -0.019643
648.612300 -0.017727
648.842400 0.031671
649.072600 0.006710
649.302800 0.000992
649.532900 0.012221
649.763100 -0.020019
649.993300 0.017666
650.223600 0.017452
650.453800 -0.002917
650.684000 -0.006718
650.914300 -0.025770
651.144500 0.019682
651.374800 0.016957
651.605100 -0.021464
651.835400 -0.009789
652.065700 -0.013264
652.296000 -0.008057
652.526300 -0.020113
652.756600 -0.002193
652.987000 -0.004297
653.217300 -0.024596
653.447700 -0.000700
653.678000 -0.011937
653.908400 0.027917
654.138800 0.036606
654.369200 0.018955
654.599600 0.044215
654.830000 0.012778
655.060500 -0.003218
655.290900 0.003120
655.521300 0.016058
655.751800 0.026062
655.982300 0.002910
656.212800 0.000974
656.443300 0.001458
656.673800 0.001232
656.904300 0.002850
657.134800 0.023560
657.365300 0.018182
657.595900 0.014963
657.826400 0.016343
658.057000 0.019617
658.287500 0.014405
658.518100 0.004010
658.748700 0.012599
658.979300 0.011957
659.209900 -0.007987
659.440600 -0.031014
659.671200 -0.052879
659.901800 -0.063512
660.132500 -0.060289
660.363200 -0.024137
660.593800 0.003640
660.824500 -0.053773
661.055200 -0.003406
661.285900 0.013254
661.516600 -0.025319
661.747400 -0.001631
661.978100 -0.006119
662.208800 0.025236
662.439600 0.016909
662.670400 -0.015494
662.901100 0.007327
663.131900 -0.015304
663.362700 -0.014857
663.593500 -0.005671
663.824300 0.020192
664.055200 -0.043539
664.286000 0.022065
664.516800 0.030049
664.747700 -0.028962
664.978600 -0.011243
665.209400 0.012661
665.440300 0.044841
665.671200 0.037796
665.902100 0.051957
666.133000 0.007275
666.364000 0.019973
666.594900 -0.051133
666.825900 0.019855
667.056800 -0.002762
667.287800 0.028508
667.518800 0.019947
667.749700 0.022007
667.980700 0.012024
668.211700 -0.013329
668.442800 -0.013634
668.673800 0.015858
668.904800 -0.019166
669.135900 0.012325
669.366900 0.002409
669.598000 -0.022167
669.829100 0.000799
670.060200 -0.030958
670.291300 -0.008524
670.522400 0.011142
670.753500 -0.004289
670.984600 -0.026386
671.215700 -0.003786
671.446900 0.010009
671.678100 0.017849
671.909200 0.038692
672.140400 0.018425
672.371600 -0.016696
672.602800 -0.020233
672.834000 -0.014096
673.065200 -0.011328
673.296400 -0.005678
673.527700 -0.010612
673.758900 -0.030788
673.990200 -0.024722
674.221400 0.012575
674.452700 -0.025836
674.684000 -0.009627
674.915300 0.045152
675.146600 -0.012919
675.377900 -0.034379
675.609300 -0.008620
675.840600 0.007545
676.071900 -0.012097
676.303300 0.001534
676.534700 -0.050626
676.766100 -0.033421
676.997400 0.017331
677.228800 -0.005652
677.460200 -0.014999
677.691700 0.040432
677.923100 -0.006293
678.154500 0.024148
678.386000 -0.003906
678.617400 -0.018963
678.848900 0.025221
679.080400 -0.020665
679.311900 0.002631
679.543400 0.031011
679.774900 0.000773
680.006400 0.000221
680.237900 0.021519
680.469400 -0.040466
680.701000 0.004120
680.932500 -0.016376
681.164100 0.031864
681.395700 0.014085
681.627300 0.006656
681.858900 0.001280
682.090500 0.003945
682.322100 -0.015267
682.553700 0.008803
682.785400 0.004920
683.017000 -0.003972
683.248700 -0.016156
683.480300 -0.008016
683.712000 -0.025654
683.943700 0.021507
684.175400 0.009419
684.407100 0.006332
684.638800 -0.021033
684.870500 -0.001651
685.102300 0.004063
685.334000 -0.004113
685.565800 0.013237
685.797500 0.030397
686.029300 -0.005660
686.261100 0.047967
686.492900 -0.010087
686.724700 0.008827
686.956500 -0.016151
687.188300 0.007141
687.420200 0.020694
687.652000 0.004893
687.883800 -0.011235
688.115700 -0.011321
688.347600 0.020537
688.579500 -0.006071
688.811400 0.007737
689.043300 -0.001969
689.275200 -0.024372
689.507100 -0.020919
689.739000 -0.024833
689.971000 0.008849
690.202900 0.015472
690.434900 -0.016086
690.666900 0.017246
690.898800 0.006347
691.130800 0.005201
691.362800 0.008780
691.594800 -0.013069
691.826900 0.009244
692.058900 -0.014592
692.290900 0.014455
692.523000 0.036060
692.755000 0.010489
692.987100 -0.004267
693.219200 -0.022417
693.451300 -0.002839
693.683400 0.023606
693.915500 -0.012682
694.147600 0.000123
694.379700 0.014085
694.611900 -0.002729
694.844000 -0.026819
695.076200 -0.023247
695.308300 0.022495
695.540500 0.011039
695.772700 -0.034907
696.004900 -0.001280
696.237100 0.010840
696.469300 -0.024641
696.701600 -0.008763
696.933800 0.030470
697.166000 0.008663
697.398300 0.027547
697.630600 0.010114
697.862800 0.041175
698.095100 0.021154
698.327400 0.000186
698.559700 0.008220
698.792000 -0.007091
699.024300 -0.009680
699.256700 -0.015458
699.489000 0.005329
699.721400 0.007881
699.953700 -0.020380
700.186100 0.002172
700.418500 0.008506
700.650900 -0.016123
700.883300 -0.018872
701.115700 0.008035
701.348100 -0.028104
701.580600 -0.030291
701.813000 0.007150
702.045400 -0.012066
702.277900 -0.006824
702.510400 0.015505
702.742900 -0.006300
702.975300 0.001707
703.207800 -0.014664
703.440300 0.018277
703.672900 0.028164
703.905400 0.021168
704.137900 0.025952
704.370500 -0.000595
704.603000 -0.013448
704.835600 0.036346
705.068200 -0.042739
705.300800 -0.014448
705.533400 -0.012519
705.766000 -0.017246
705.998600 -0.002759
706.231200 -0.002578
706.463800 0.003330
706.696500 0.008011
706.929100 -0.018424
707.161800 -0.037664
707.394500 -0.030966
707.627200 -0.011508
707.859900 0.054633
708.092600 0.007721
708.325300 0.024307
708.558000 -0.015307
708.790700 -0.010545
709.023500 0.025933
709.256200 -0.002578
709.489000 -0.023537
709.721700 -0.007086
709.954500 -0.019811
710.187300 -0.012617
710.420100 -0.003488
710.652900 -0.028298
710.885700 -0.018863
711.118600 -0.011063
711.351400 -0.064725
711.584200 -0.027436
711.817100 0.001360
712.050000 -0.022332
712.282800 0.014392
712.515700 -0.024603
712.748600 -0.004425
712.981500 -0.030206
713.214400 0.023997
713.447400 -0.036039
713.680300 -0.026097
713.913200 -0.004621
714.146200 -0.013661
714.379100 -0.024406
714.612100 -0.000930
714.845100 -0.006430
715.078100 -0.004715
715.311100 -0.028441
715.544100 0.000646
715.777100 -0.011083
716.010200 -0.011619
716.243200 -0.044083
716.476200 0.030661
716.709300 0.000811
716.942400 0.000210
717.175400 -0.005502
717.408500 0.004798
717.641600 -0.007561
717.874700 -0.018686
718.107800 0.004049
718.341000 -0.001616
718.574100 0.011912
718.807200 0.002367
719.040400 0.005178
719.273600 0.003943
719.506700 -0.001450
719.739900 -0.004267
719.973100 0.001709
720.206300 -0.012334
720.439500 -0.005031
720.672700 -0.001374
720.906000 -0.000591
721.139200 0.013893
721.372500 -0.005009
721.605700 -0.006727
721.839000 0.009396
722.072300 0.004641
722.305500 -0.038074
722.538800 0.017323
722.772100 -0.007883
723.005500 -0.041752
723.238800 0.015809
723.472100 -0.009815
723.705500 0.004795
723.938800 -0.021527
724.172200 0.000902
724.405600 -0.008291
724.638900 0.022869
724.872300 -0.021675
725.105700 -0.013873
725.339100 0.006608
725.572600 0.011370
725.806000 -0.027740
726.039400 -0.007380
726.272900 0.019502
726.506300 0.016869
726.739800 0.008111
726.973300 0.007175
727.206800 -0.023304
727.440300 0.014448
727.673800 -0.016334
727.907300 0.001353
728.140800 -0.015504
728.374300 0.000140
728.607900 -0.013309
728.841400 -0.001626
729.075000 0.002951
729.308600 -0.021833
729.542100 -0.016228
729.775700 -0.005198
730.009300 -0.015384
730.242900 -0.002789
730.476600 0.015574
730.710200 0.013080
730.943800 0.039474
731.177500 0.025758
731.411100 0.015091
731.644800 -0.001491
731.878500 -0.009089
732.112200 -0.024202
732.345800 0.000951
732.579500 0.022712
732.813300 -0.004923
733.047000 0.025123
733.280700 0.022568
733.514500 -0.000584
733.748200 0.004555
733.982000 0.002076
734.215700 -0.007683
734.449500 0.008389
734.683300 0.022526
734.917100 0.007382
735.150900 0.014216
735.384700 -0.013897
735.618500 0.023184
735.852400 -0.007159
736.086200 -0.001636
736.320100 -0.003861
736.553900 0.018110
736.787800 -0.008159
737.021700 0.002823
737.255600 0.009414
737.489500 0.009173
737.723400 -0.008327
737.957300 -0.014439
738.191200 -0.013613
738.425200 0.000074
738.659100 -0.006924
738.893100 -0.016634
739.127100 0.008622
739.361000 -0.001816
739.595000 0.017509
739.829000 -0.011034
740.063000 -0.024934
740.297000 0.024412
740.531000 -0.015143
740.765100 -0.011956
740.999100 0.002531
741.233200 0.016293
741.467200 0.026000
741.701300 -0.029640
741.935400 -0.022747
742.169500 -0.045238
742.403600 0.000000
742.637700 -0.018504
742.871800 -0.032903
743.105900 -0.008784
743.340000 -0.026470
743.574200 -0.001719
743.808300 0.007335
744.042500 -0.032915
744.276700 0.004712
744.510800 0.003487
744.745000 -0.017081
744.979200 0.009556
745.213400 0.009625
745.447700 -0.004836
745.681900 -0.001431
745.916100 -0.004744
746.150400 0.017457
746.384600 0.008268
746.618900 -0.013404
746.853200 -0.013863
747.087400 -0.016976
747.321700 0.000581
747.556000 -0.019987
747.790300 0.004791
748.024700 -0.021752
748.259000 0.013556
748.493300 0.031286
748.727700 -0.024437
748.962000 0.042126
749.196400 0.007933
749.430800 0.021303
749.665200 0.012156
749.899500 0.014163
750.133900 -0.030375
750.368400 0.005189
750.602800 0.006834
750.837200 -0.023662
751.071700 0.016863
751.306100 0.005004
751.540600 -0.005258
751.775000 0.007208
752.009500 -0.000268
752.244000 -0.012363
752.478500 -0.022077
752.713000 -0.008367
752.947500 -0.009954
753.182000 -0.014473
753.416600 -0.013526
753.651100 0.006981
753.885600 0.001624
754.120200 0.007325
754.354800 -0.010907
754.589400 -0.010640
754.823900 -0.008140
755.058500 0.005358
755.293100 -0.008366
755.527800 0.013871
755.762400 -0.004045
755.997000 0.000961
756.231700 0.005981
756.466300 0.015890
756.701000 -0.010511
756.935600 0.005908
757.170300 -0.003316
757.405000 0.012976
757.639700 0.008901
757.874400 0.024840
758.109100 0.007326
758.343800 0.016789
758.578600 -0.000673
758.813300 -0.008505
759.048100 0.010113
759.282800 -0.006762
759.517600 0.001101
759.752400 0.014144
759.987200 0.015701
760.222000 0.011105
760.456800 0.009675
760.691600 0.011454
760.926400 0.000731
761.161300 -0.002807
761.396100 -0.013523
761.631000 0.005292
761.865800 0.028083
762.100700 0.011353
762.335600 -0.006515
762.570500 0.010893
762.805400 -0.015422
763.040300 -0.027047
763.275200 0.012539
763.510100 -0.019759
763.745000 0.024466
763.980000 0.023430
764.214900 -0.014748
764.449900 -0.002428
764.684900 0.012552
764.919800 -0.003069
765.154800 -0.025898
765.389800 0.008011
765.624800 0.021710
765.859900 0.002469
766.094900 0.002298
766.329900 0.002917
766.565000 -0.007909
766.800000 -0.014601
767.035100 -0.005706
767.270100 0.010658
767.505200 0.010817
767.740300 -0.013425
767.975400 -0.011348
768.210500 0.004997
768.445600 -0.001804
768.680800 -0.001594
768.915900 0.005832
769.151000 0.014750
769.386200 -0.014900
769.621400 -0.006291
769.856500 0.012282
770.091700 0.030492
770.326900 -0.008697
770.562100 -0.018339
770.797300 -0.003584
771.032500 0.005516
771.267700 0.006354
771.503000 -0.007148
771.738200 0.017066
771.973500 -0.007003
772.208700 -0.007179
772.444000 0.005584
772.679300 -0.012568
772.914600 -0.008840
773.149900 -0.005421
773.385200 -0.014637
773.620500 -0.012229
773.855800 0.033229
774.091100 -0.018471
774.326500 0.009203
774.561800 0.027353
774.797200 0.013468
775.032600 0.054107
775.267900 -0.030870
775.503300 0.029760
775.738700 -0.003894
775.974100 -0.021611
776.209500 -0.014388
776.445000 -0.010848
776.680400 0.016747
776.915800 0.004759
777.151300 -0.029565
777.386800 -0.028395
777.622200 0.007416
777.857700 0.023539
778.093200 0.012960
778.328700 0.013371
778.564200 -0.029754
778.799700 0.008448
779.035200 -0.009048
779.270700 -0.010849
779.506300 -0.005124
779.741800 -0.000864
779.977400 -0.032859
780.213000 0.004283
780.448500 -0.003607
780.684100 -0.043765
780.919700 0.038159
781.155300 -0.000688
781.390900 0.033225
781.626500 0.031881
781.862200 0.052047
782.097800 0.018280
782.333500 0.003804
782.569100 0.013713
782.804800 -0.036148
783.040500 0.009019
783.276100 -0.033484
783.511800 -0.010294
783.747500 0.011097
783.983200 0.005427
784.219000 -0.011237
784.454700 -0.000852
784.690400 0.031507
784.926200 0.047177
785.161900 0.007705
785.397700 -0.019320
785.633500 -0.003351
785.869200 0.000985
786.105000 -0.007669
786.340800 0.004219
786.576600 -0.022603
786.812400 -0.001890
787.048300 -0.023839
787.284100 0.014663
787.519900 -0.005367
787.755800 -0.004303
787.991700 0.004453
788.227500 -0.005486
788.463400 -0.007532
788.699300 -0.000403
788.935200 0.005217
789.171100 -0.019017
789.407000 -0.006421
789.642900 0.011946
789.878900 -0.003126
790.114800 0.015911
790.350700 0.013123
790.586700 0.025695
790.822700 -0.009042
791.058600 -0.066881
791.294600 -0.009906
791.530600 -0.028985
791.766600 0.019129
792.002600 0.001036
792.238700 -0.040228
792.474700 0.031455
792.710700 -0.035294
792.946800 -0.000042
793.182800 0.011345
793.418900 -0.002088
793.655000 0.006012
793.891000 0.029989
794.127100 0.018304
794.363200 0.017142
794.599300 -0.004319
794.835500 0.002341
795.071600 0.012988
795.307700 -0.000267
795.543900 -0.024941
795.780000 0.012408
796.016200 0.038817
796.252300 -0.014730
796.488500 0.008465
796.724700 0.014577
796.960900 -0.001691
797.197100 0.031378
797.433300 -0.039542
797.669500 0.016063
797.905800 0.042290
798.142000 -0.030723
798.378300 0.019267
798.614500 -0.030366
798.850800 0.005700
799.087100 0.025096
799.323300 0.012054
799.559600 0.005291
799.795900 -0.002330
800.032200 0.060104
800.268600 -0.042779
800.504900 -0.014901
800.741200 -0.000268
800.977600 -0.010503
801.213900 0.004556
801.450300 0.023320
801.686700 -0.002614
801.923000 -0.017939
802.159400 0.063693
802.395800 -0.032848
802.632200 0.017635
802.868600 -0.027008
803.105100 -0.030827
803.341500 -0.040983
803.577900 0.053802
803.814400 0.012964
804.050800 0.007162
804.287300 -0.019308
804.523800 -0.026530
804.760300 0.040714
804.996800 -0.015224
805.233300 0.020058
805.469800 0.045977
805.706300 -0.045059
805.942800 0.000663
806.179400 -0.025539
806.415900 0.042669
806.652500 -0.023496
806.889000 0.037139
807.125600 0.046325
807.362200 -0.015835
807.598800 0.011812
807.835400 -0.033411
808.072000 0.001345
808.308600 0.021505
808.545200 0.016983
808.781800 -0.022358
809.018500 0.020159
809.255100 -0.011705
809.491800 -0.006224
809.728400 -0.034486
809.965100 0.002728
810.201800 -0.003211
810.438500 -0.029986
810.675200 -0.010614
810.911900 -0.013215
811.148600 -0.020408
811.385300 -0.006473
811.622100 -0.037692
811.858800 -0.043693
812.095600 -0.014515
812.332300 -0.012927
812.569100 -0.021199
812.805900 -0.010956
813.042700 0.015512
813.279500 0.034634
813.516300 -0.041544
813.753100 -0.008790
813.989900 0.022594
814.226700 0.034551
814.463600 -0.019782
814.700400 0.036529
814.937300 -0.043240
815.174200 -0.011389
815.411000 -0.037359
815.647900 -0.041430
815.884800 -0.030443
816.121700 -0.027457
816.358600 -0.049245
816.595500 0.104797
816.832400 -0.076255
817.069400 0.035604
817.306300 -0.001199
817.543300 -0.030054
817.780200 -0.047178
818.017200 0.017014
818.254200 -0.015358
818.491200 -0.028911
818.728200 -0.010568
818.965200 0.022819
819.202200 -0.010498
819.439200 0.002215
819.676200 -0.067695
819.913300 0.005409
820.150300 -0.081306
820.387400 -0.003448
820.624400 0.044745
820.861500 0.008861
821.098600 0.045846
821.335700 0.090873
821.572700 0.039693
821.809900 -0.002468
822.047000 0.028477
822.284100 -0.032806
822.521200 -0.015290
822.758400 -0.014441
822.995500 0.072344
823.232700 0.081486
823.469800 0.027344
823.707000 -0.033441
823.944200 0.014789
824.181400 0.017549
824.418600 -0.040739
824.655800 0.026294
824.893000 -0.000669
825.130200 -0.023973
825.367500 -0.020004
825.604700 0.028117
825.841900 0.000842
826.079200 0.011334
826.316500 -0.000235
826.553700 0.027720
826.791000 0.009021
827.028300 0.004533
827.265600 0.043801
827.502900 0.003480
827.740200 0.039175
827.977600 -0.011802
828.214900 0.031823
828.452200 -0.010127
828.689600 -0.024066
828.927000 0.013297
829.164300 -0.053500
829.401700 -0.055592
829.639100 0.079914
829.876500 -0.015756
830.113900 0.072435
830.351300 0.017235
830.588700 0.061415
830.826100 -0.072048
831.063600 -0.064718
831.301000 0.035187
831.538500 -0.063129
831.775900 0.050772
832.013400 -0.106747
832.250900 -0.006829
832.488400 0.027240
832.725900 -0.008611
832.963400 -0.038606
833.200900 0.046853
833.438400 -0.002226
833.675900 0.107468
833.913500 0.021554
834.151000 0.013216
834.388600 0.054893
834.626100 0.027724
834.863700 0.060329
835.101300 0.011092
835.338900 -0.019661
835.576500 0.018884
835.814100 -0.119541
836.051700 -0.033212
836.289300 0.065970
836.526900 -0.026662
836.764600 -0.000741
837.002200 0.039380
837.239900 0.007164
837.477500 0.039222
837.715200 -0.183774
837.952900 -0.034033
838.190600 -0.008968
838.428300 -0.131701
838.666000 0.116168
838.903700 0.031410
839.141400 0.096662
839.379100 0.092864
839.616900 -0.081970
839.854600 -0.011043
840.092400 -0.041100
840.330200 0.070072
840.567900 0.053359
840.805700 0.082089
841.043500 0.043221
841.281300 -0.061090
841.519100 -0.032799
841.756900 0.030766
841.994700 -0.163114
842.232600 0.116777
842.470400 0.054138
842.708200 -0.055689
842.946100 -0.095064
843.184000 -0.091591
843.421800 0.078491
843.659700 -0.030725
843.897600 0.057313
844.135500 0.066502
844.373400 -0.000239
844.611300 0.031073
844.849200 -0.033432
845.087200 0.030228
845.325100 0.125756
845.563100 -0.049907
845.801000 0.059681
846.039000 -0.041542
846.277000 0.011403
846.514900 -0.018067
846.752900 -0.182008
846.990900 -0.046024
847.228900 0.018205
847.466900 0.086957
847.705000 -0.134548
847.943000 -0.208357
848.181000 -0.067177
848.419100 -0.037295
848.657100 -0.062174
848.895200 -0.060378
849.133300 0.122279
849.371300 -0.017244
849.609400 0.040112
849.847500 0.019173
850.085600 -0.083833
850.323700 0.074408
850.561900 -0.115678
850.800000 0.047812
851.038100 0.068319
851.276300 -0.101242
851.514400 -0.134411
851.752600 0.053460
851.990800 0.026763
852.228900 0.006035
852.467100 -0.021030
852.705300 -0.016113
852.943500 0.032860
853.181700 0.032894
853.420000 0.030406
853.658200 0.016086
853.896400 -0.003654
854.134700 -0.021395
854.372900 0.002672
854.611200 0.013338
854.849500 0.042574
855.087700 0.028591
855.326000 0.035013
855.564300 -0.011970
855.802600 0.018437
856.040900 0.030766
856.279200 0.006644
856.517600 -0.010712
856.755900 -0.015317
856.994200 -0.032590
857.232600 0.031606
857.471000 0.016185
857.709300 0.109139
857.947700 -0.064270
858.186100 0.028870
858.424500 -0.084485
858.662900 -0.072092
858.901300 0.005675
859.139700 -0.019789
859.378100 -0.044505
859.616600 0.043579
859.855000 -0.011801
860.093500 -0.039997
860.331900 -0.016474
860.570400 0.011659
860.808900 -0.019143
861.047300 0.062457
861.285800 -0.074783
861.524300 0.213229
861.762800 -0.060389
862.001300 -0.044710
862.239900 0.107672
862.478400 -0.029869
862.716900 0.015469
862.955500 -0.030243
863.194000 -0.052194
863.432600 -0.030048
863.671200 0.077169
863.909800 -0.036116
864.148300 -0.005386
864.386900 0.032113
864.625500 0.014144
864.864200 -0.089171
865.102800 -0.076214
865.341400 0.068576
865.580000 -0.053233
865.818700 -0.043179
866.057300 0.120169
866.296000 0.014013
866.534700 -0.060232
866.773300 0.030466
867.012000 -0.023571
867.250700 0.017834
867.489400 -0.144289
867.728100 0.056151
867.966900 0.060664
868.205600 -0.037302
868.444300 0.082154
868.683100 0.006700
868.921800 -0.070284
869.160600 0.021492
869.399300 -0.000351
869.638100 0.153348
869.876900 -0.105092
870.115700 -0.041179
870.354500 0.031413
870.593300 -0.025193
870.832100 -0.000271
871.070900 -0.075321
871.309700 -0.025065
871.548600 -0.017873
871.787400 -0.012773
872.026300 -0.128830
872.265100 0.010645
872.504000 -0.099170
872.742900 0.020118
872.981800 -0.057127
873.220700 -0.013024
873.459600 -0.035143
873.698500 0.013855
873.937400 0.009670
874.176300 -0.039914
874.415300 0.020268
874.654200 -0.075578
874.893200 0.031602
875.132100 -0.112124
875.371100 -0.015163
875.610100 -0.004867
875.849100 -0.056923
876.088000 -0.034680
876.327000 0.061648
876.566100 -0.034191
876.805100 0.032094
877.044100 -0.072214
877.283100 -0.060459
877.522200 -0.137970
877.761200 -0.108610
878.000300 0.086880
878.239300 0.066721
878.478400 -0.020966
878.717500 0.043284
878.956600 0.017123
879.195700 0.020457
879.434800 -0.032292
879.673900 0.051896
879.913000 -0.041473
880.152100 0.039768
880.391300 0.094328
880.630400 0.059293
880.869600 -0.058898
881.108700 -0.019144
881.347900 0.058237
881.587100 0.025668
881.826200 0.083528
882.065400 0.106802
882.304600 -0.034460
882.543800 0.039211
882.783100 0.080002
883.022300 -0.055454
883.261500 -0.078462
883.500700 -0.094351
883.740000 -0.003483
883.979200 0.012997
884.218500 -0.060859
884.457800 -0.083355
884.697100 -0.055471
884.936300 -0.027807
885.175600 0.066290
885.414900 0.020696
885.654200 -0.003476
885.893600 0.053873
886.132900 0.128782
886.372200 -0.051973
886.611600 -0.203770
886.850900 0.080643
887.090300 0.059116
887.329600 0.070104
887.569000 -0.044055
887.808400 0.048567
888.047800 -0.064591
888.287200 0.010732
888.526600 -0.079507
888.766000 -0.095828
889.005400 -0.018733
889.244800 0.022442
889.484300 0.027009
889.723700 0.046367
889.963200 0.000618
890.202600 -0.006546
890.442100 0.031556
890.681600 -0.038116
890.921100 0.085792
891.160600 0.082798
891.400100 -0.042072
891.639600 0.080720
891.879100 -0.001136
892.118600 0.005906
892.358100 -0.044099
892.597700 0.017411
892.837200 0.107425
893.076800 -0.126097
893.316300 0.016378
893.555900 0.105013
893.795500 0.007253
894.035100 -0.012302
894.274700 0.127197
894.514300 0.127254
894.753900 -0.008472
894.993500 -0.040581
895.233100 -0.038161
895.472700 -0.084635
895.712400 0.077337
895.952000 0.004993
896.191700 -0.048025
896.431400 -0.066531
896.671000 0.086857
896.910700 -0.006917
897.150400 0.063499
897.390100 -0.068879
897.629800 0.050855
897.869500 0.056989
898.109200 0.011584
898.348900 0.020683
898.588700 0.008784
898.828400 0.013388
899.068200 0.087293
899.307900 -0.066373
899.547700 0.051619
899.787500 0.079404
900.027200 -0.266274
900.267000 0.016217
900.506800 0.053660
900.746600 0.020290
900.986400 0.000780
901.226300 0.066727
901.466100 -0.019829
901.705900 -0.011069
901.945800 0.061578
902.185600 -0.003767
902.425500 -0.026779
902.665400 0.011022
902.905200 -0.041421
903.145100 0.051141
903.385000 0.006050
903.624900 0.025766
903.864800 0.098794
904.104700 -0.006687
904.344600 -0.048244
904.584600 -0.095853
904.824500 -0.024763
905.064400 0.355582
905.304400 0.057504
905.544400 0.053021
905.784300 0.143692
906.024300 -0.057260
906.264300 0.106562
906.504300 0.000475
906.744300 -0.021433
906.984300 -0.103258
907.224300 -0.014530
907.464300 0.095435
907.704300 0.008200
907.944400 0.088567
908.184400 -0.038508
908.424500 0.050473
908.664500 -0.032302
908.904600 -0.008686
909.144700 0.058100
909.384700 0.017362
909.624800 -0.150036
909.864900 -0.052676
910.105000 0.101868
910.345200 -0.340753
910.585300 0.088406
910.825400 -0.028888
911.065500 -0.097510
911.305700 0.023240
911.545800 0.129946
911.786000 0.041333
912.026200 0.008371
912.266300 0.086038
912.506500 -0.088276
912.746700 0.151857
912.986900 -0.152340
913.227100 -0.070429
913.467300 -0.062832
913.707500 -0.185387
913.947800 0.309067
914.188000 0.152340
914.428300 -0.031580
914.668500 0.084533
914.908800 0.313696
915.149000 0.031020
915.389300 0.134638
915.629600 0.106142
915.869900 -0.017709
916.110200 -0.108250
916.350500 0.044705
916.590800 -0.085023
916.831100 0.088618
917.071400 0.128750
917.311800 -0.052176
917.552100 0.089991
917.792500 -0.120021
918.032800 0.010403
918.273200 0.108054
918.513600 -0.020918
918.753900 0.013067
918.994300 0.188356
919.234700 0.089613
919.475100 -0.135998
919.715500 -0.051476
919.956000 0.119389
920.196400 -0.140971
920.436800 -0.128553
920.677300 0.082974
920.917700 0.103586
921.158200 0.457377
921.398600 -0.070827
921.639100 0.144548
921.879600 -0.299548
922.120100 -0.145684
922.360600 0.258278
922.601100 0.091754
922.841600 0.000880
923.082100 0.066312
923.322600 -0.038156
923.563100 -0.109558
923.803700 -0.031150
924.044200 0.161860
924.284800 0.129542
924.525400 0.345879
924.765900 0.095175
925.006500 0.095993
925.247100 -0.033708
925.487700 -0.128615
925.728300 0.082780
925.968900 -0.142167
926.209500 -0.013227
926.450100 0.007615
926.690800 0.235240
926.931400 -0.047835
927.172000 0.321343
927.412700 0.039531
927.653300 0.315124
927.894000 -0.108994
928.134700 -0.081514
928.375400 0.042734
928.616100 0.303599
928.856800 -0.169782
929.097500 -0.052900
929.338200 -0.066475
929.578900 0.330515
929.819600 0.451433
930.060400 -0.205195
930.301100 -0.111692
930.541900 0.054486
930.782600 0.064384
931.023400 -0.139097
931.264200 0.324639
931.504900 0.098820
931.745700 0.659729
931.986500 -0.111332
932.227300 -0.114885
932.468100 0.256310
932.708900 0.412676
932.949800 -0.021801
933.190600 0.314569
933.431400 0.100236
933.672300 -0.146864
933.913100 -0.132949
934.154000 0.018402
934.394900 0.016491
934.635800 -0.138385
934.876600 -0.081341
935.117500 -0.032725
935.358400 -0.000269
935.599300 0.088410
935.840300 -0.219103
936.081200 0.113887
936.322100 -0.254422
936.563000 0.129417
936.804000 0.497465
937.044900 -0.321563
937.285900 -0.221992
937.526900 0.145087
937.767800 0.132728
938.008800 -0.167629
938.249800 0.060698
938.490800 -0.151423
938.731800 0.333895
938.972800 0.131381
939.213800 0.159310
939.454900 0.055475
939.695900 3.206826
939.936900 -0.107791
940.178000 -0.096247
940.419000 -0.304851
940.660100 0.221171
940.901200 0.034448
941.142200 -0.571482
941.383300 0.130187
941.624400 -0.028411
941.865500 0.183333
942.106600 0.404159
942.347700 -0.368464
942.588900 0.054196
942.830000 1.890856
943.071100 -0.088811
943.312300 0.428600
943.553400 0.015717
943.794600 0.098208
944.035700 0.261150
944.276900 -0.079456
944.518100 -0.194062
944.759300 0.054981
945.000500 -0.322158
945.241700 0.351352
945.482900 -0.197347
945.724100 0.468581
945.965300 -0.149013
946.206600 -0.248447
946.447800 -0.129234
946.689100 -0.094367
946.930300 -0.687380
947.171600 -0.248371
947.412800 0.158175
947.654100 -0.074339
947.895400 0.079970
948.136700 -0.051866
948.378000 0.117929
948.619300 0.614466
948.860600 0.066633
949.101900 -0.226886
949.343300 0.225436
949.584600 0.980663
949.825900 -0.024539
950.067300 0.240348
950.308600 -0.256088
950.550000 -0.180866
950.791400 -0.391286
951.032700 -0.463921
951.274100 -0.267776
951.515500 0.250560
951.756900 0.562084
951.998300 -0.139514
952.239800 0.274430
952.481200 -0.176779
952.722600 -0.451757
952.964000 -0.021279
953.205500 0.554929
953.446900 -0.249895
953.688400 -0.018000
953.929900 0.290291
954.171300 -1.042729
954.412800 -0.115769
954.654300 0.021951
954.895800 -0.081284
955.137300 0.831506
955.378800 -0.280059
955.620300 0.097186
955.861800 0.337826
956.103400 0.216379
956.344900 -0.148552
956.586500 -0.247069
956.828000 0.401601
957.069600 -0.370680
957.311100 -0.534554
957.552700 0.221377
957.794300 0.378273
958.035900 -0.391873
958.277500 -0.087091
958.519100 0.024403
958.760700 0.021305
959.002300 -0.422921
959.243900 3.145818
959.485600 0.394808
959.727200 0.258798
959.968800 -0.280103
960.210500 -0.034250
960.452200 -0.339966
960.693800 -0.302075
960.935500 -3.319314
961.177200 -0.063200
961.418900 -0.521429
961.660600 0.128762
961.902300 3.174641
962.144000 -0.595089
962.385700 -0.238909
962.627400 0.224857
962.869200 2.719331
963.110900 0.176522
963.352700 0.931621
963.594400 0.445996
963.836200 2.999565
964.077900 -0.058397
964.319700 -0.182154
964.561500 0.257657
964.803300 1.230764
965.045100 -0.411212
965.286900 2.791691
965.528700 -0.147112
965.770500 -0.370489
966.012300 -0.496295
966.254200 2.791691
966.496000 -0.472385
966.737900 0.316405
966.979700 0.094173
967.221600 2.833784
967.463400 0.253983
967.705300 0.050885
967.947200 -0.361415
968.189100 -0.493776
968.431000 -0.022771
968.672900 3.067443
968.914800 -0.174197
969.156700 0.385239
969.398700 -0.324627
969.640600 -0.490884
969.882500 -0.077037
970.124500 -0.480190
970.366400 0.016948
970.608400 0.129155
970.850400 2.710117
971.092300 1.299356
971.334300 -0.267819
971.576300 -0.669319
971.818300 0.117777
972.060300 -0.210043
972.302300 3.275081
972.544300 -0.497467
972.786400 0.184171
973.028400 0.151448
973.270400 0.112704
973.512500 3.082426
973.754500 0.404429
973.996600 2.994757
974.238700 -0.039196
974.480700 0.278510
974.722800 0.469866
974.964900 -0.018783
975.207000 3.215373
975.449100 -0.836185
975.691200 -0.211273
975.933300 -0.185319
976.175500 -3.292256
976.417600 0.500924
976.659700 0.924423
976.901900 -0.127924
977.144000 -0.049974
977.386200 -0.157472
977.628300 3.352761
977.870500 0.475548
978.112700 -0.515555
978.354900 -0.219222
978.597100 0.051095
978.839300 0.353128
979.081500 -0.116701
979.323700 -3.108565
979.565900 -0.528867
979.808200 0.027997
980.050400 -0.088578
980.292600 1.417536
980.534900 0.547454
980.777100 0.475732
981.019400 0.535332
981.261700 0.431747
981.504000 0.435075
981.746200 -0.472965
981.988500 3.013259
982.230800 -0.179926
982.473100 0.056481
982.715500 0.351723
982.957800 -0.545641
983.200100 0.162970
983.442400 0.010777
983.684800 0.581857
983.927100 0.171090
984.169500 -0.241173
984.411800 -0.394338
984.654200 -0.129999
984.896600 0.052186
985.139000 -0.024824
985.381400 0.444552
985.623800 0.095467
985.866200 -0.023758
986.108600 0.000000
986.351000 -0.271256
986.593400 0.460366
986.835800 0.479001
987.078300 -0.544455
987.320700 -0.374404
987.563200 -0.018628
987.805600 -0.995298
988.048100 0.919697
988.290600 -0.261593
988.533100 -2.158362
988.775600 0.515075
989.018000 0.797214
989.260500 0.064344
989.503100 -2.956168
989.745600 -0.539849
989.988100 -2.701568
990.230600 0.378273
990.473200 2.935507
990.715700 0.170963
990.958200 2.523746
991.200800 0.279692
991.443400 -2.752816
991.685900 -0.412426
991.928500 -2.217484
992.171100 -1.051688
992.413700 3.125806
992.656300 0.157346
992.898900 0.342541
993.141500 -0.000724
993.384100 3.021603
993.626700 0.598227
993.869400 0.024026
994.112000 1.550907
994.354700 0.274823
994.597300 -0.185443
994.840000 -2.683047
995.082600 -0.614115
995.325300 -0.725683
995.568000 -0.488301
995.810700 0.536040
996.053400 0.000000
996.296100 2.827369
996.538800 3.042969
996.781500 0.115763
997.024200 -1.100309
997.267000 0.296146
997.509700 0.139399
997.752400 0.273094
997.995200 -0.254843
998.237900 -0.361765
998.480700 -0.181093
998.723500 -2.217484
998.966200 -0.242489
999.209000 -1.255273
999.451800 -0.111719
999.694600 3.025715
999.937400 0.409578
1000.180200 -0.307869
1000.423000 1.192918
1000.665900 2.907949
1000.908700 -0.589227
1001.151500 -0.434724
1001.394400 -0.293943
1001.637200 0.376889
1001.880100 0.778151
1002.123000 -0.095401
1002.365800 -0.598774
1002.608700 -0.455646
1002.851600 -0.435799
1003.094500 -0.224121
1003.337400 -0.306263
1003.580300 -3.369030
1003.823200 -0.765726
1004.066100 0.282260
1004.309100 -0.108038
1004.552000 3.008600
1004.794900 2.847573
1005.037900 0.226821
1005.280800 1.028029
1005.523800 1.275070
1005.766700 0.064572
1006.009700 -0.190017
1006.252700 -2.813581
1006.495700 -0.295652
1006.738700 0.000000
1006.981700 1.127486
1007.224700 -0.237209
1007.467700 -0.995721
1007.710700 -0.072387
1007.953800 0.221332
1008.196800 -0.016420
1008.439800 0.156329
1008.682900 -0.174322
1008.925900 0.084346
1009.169000 0.284346
1009.412100 -2.784617
1009.655100 -0.947568
1009.898200 0.113030
1010.141300 2.432969
1010.384400 1.004237
1010.627500 -0.415913
1010.870600 0.240448
1011.113700 -0.049726
1011.356800 2.820201
1011.600000 1.591065
1011.843100 -0.132165
1012.086300 -3.071514
1012.329400 -0.058730
1012.572600 -2.966142
1012.815700 0.875419
1013.058900 -2.945961
1013.302100 0.068384
1013.545200 0.161606
1013.788400 3.108227
1014.031600 -3.086716
1014.274800 -0.145971
1014.518000 0.012440
1014.761300 0.274990
1015.004500 0.000000
1015.247700 0.037970
1015.490900 -2.840733
1015.734200 0.970287
1015.977400 2.450249
1016.220700 -2.853698
1016.464000 -0.351302
1016.707200 -0.675956
1016.950500 -0.616798
1017.193800 0.188617
1017.437100 -0.328128
1017.680400 0.060630
1017.923700 0.176551
1018.167000 0.495328
1018.410300 0.021239
1018.653600 0.100233
1018.896900 0.588633
1019.140300 0.074026
1019.383600 0.264818
1019.627000 2.950851
1019.870300 2.465383
1020.113700 0.583671
1020.357100 -0.068265
1020.600400 2.853698
1020.843800 -0.172904
1021.087200 0.473549
1021.330600 -2.902547
1021.574000 -0.248538
1021.817400 0.000000
1022.060800 0.000000
1022.304200 -2.318063
1022.547700 0.351775
1022.791100 0.000000
1023.034500 2.812913
