# Wavelength	Absorbance
197.780200 0.090353
197.984200 2.907949
198.188200 0.115135
198.392200 2.682145
198.596300 0.702511
198.800300 2.318063
199.004400 2.918555
199.208500 2.866287
199.412600 -0.238659
199.616800 2.768638
199.820900 2.465383
200.025100 0.104892
200.229200 -0.601687
200.433400 3.008600
200.637600 2.745075
200.841800 -0.139390
201.046100 2.707570
201.250300 1.780974
201.454600 0.418119
201.658900 0.220564
201.863100 0.463278
202.067400 2.760422
202.271800 0.445412
202.476100 2.896526
202.680500 0.222064
202.884800 0.611242
203.089200 0.927418
203.293600 0.304166
203.498000 -0.356229
203.702400 2.336460
203.906900 -0.543386
204.111300 0.000000
204.315800 0.123049
204.520300 0.157702
204.724800 2.587711
204.929300 2.396199
205.133800 1.450319
205.338400 0.079050
205.543000 0.233415
205.747500 0.506054
205.952100 0.857192
206.156700 3.034628
206.361400 -3.200029
206.566000 2.187521
206.770600 3.168203
206.975300 2.294466
207.180000 -2.092921
207.384700 2.587711
207.589400 -2.788168
207.794100 -0.702408
207.998900 -0.652175
208.203600 0.483902
208.408400 0.088857
208.613200 0.317774
208.818000 2.495544
209.022800 2.414973
209.227600 0.032033
209.432500 2.907949
209.637300 -0.371688
209.842200 2.294466
210.047100 0.296224
210.252000 2.053078
210.456900 0.679820
210.661800 3.055378
210.866800 3.104828
211.071800 0.098021
211.276700 0.150552
211.481700 2.736397
211.686700 -0.561779
211.891800 2.480007
212.096800 1.007880
212.301800 0.358942
212.506900 3.209783
212.712000 0.192617
212.917100 0.668835
213.122200 2.866287
213.327300 0.390304
213.532500 -2.029384
213.737600 -0.139078
213.942800 -1.458098
214.148000 2.631444
214.353200 -2.741152
214.558400 2.956168
214.763600 3.265290
214.968900 1.253074
215.174100 3.104487
215.379400 -2.830589
215.584700 2.846955
215.790000 -0.019790
215.995300 2.820201
216.200700 -0.364082
216.406000 0.020048
216.611400 -0.570048
216.816800 -0.223882
217.022200 -0.195728
217.227600 0.528853
217.433000 0.167343
217.638400 3.047275
217.843900 -0.661590
218.049400 0.000000
218.254800 3.275081
218.460300 3.008600
218.665900 0.429278
218.871400 3.234517
219.076900 2.990339
219.282500 0.554406
219.488100 0.230371
219.693600 2.783904
219.899200 0.179151
220.104900 1.411926
220.310500 2.158362
220.516100 -2.582063
220.721800 2.872156
220.927500 3.071145
221.133200 2.902003
221.338900 0.495463
221.544600 -0.069499
221.750300 0.652076
221.956100 -0.009043
222.161800 2.338456
222.367600 0.082695
222.573400 -0.250309
222.779200 -2.232996
222.985000 0.000000
223.190900 0.369091
223.396700 -0.272585
223.602600 0.005091
223.808500 2.736397
224.014400 0.036794
224.220300 2.634477
224.426200 2.719331
224.632200 0.170034
224.838100 2.890421
225.044100 -0.353254
225.250100 -0.118158
225.456100 0.047907
225.662100 -0.294913
225.868100 -0.946247
226.074200 2.632457
226.280200 -3.200029
226.486300 2.846955
226.692400 0.000000
226.898500 0.994193
227.104600 2.294466
227.310700 0.054268
227.516900 0.600788
227.723000 2.089905
227.929200 3.252853
228.135400 3.074816
228.341600 2.622214
228.547800 3.108227
228.754100 0.335505
228.960300 -0.624306
229.166600 -1.643453
229.372900 0.467039
229.579100 2.683047
229.785500 -0.339607
229.991800 0.845098
230.198100 2.682145
230.404500 -0.985114
230.610800 -0.061689
230.817200 -2.668386
231.023600 -0.047598
231.230000 2.683047
231.436400 0.214269
231.642900 -0.197952
231.849300 0.186386
232.055800 2.008600
232.262300 3.280123
232.468800 1.959041
232.675300 2.701568
232.881800 -0.551180
233.088400 0.242648
233.294900 2.550228
233.501500 -0.336796
233.708100 -1.812913
233.914700 -0.194293
234.121300 0.000000
234.327900 -0.272904
234.534600 2.682145
234.741300 0.128655
234.947900 0.408017
235.154600 3.406199
235.361300 2.821514
235.568000 -0.178014
235.774800 0.334378
235.981500 2.562293
236.188300 0.000000
236.395100 2.999565
236.601800 0.000000
236.808700 0.403439
237.015500 2.961421
237.222300 -0.095204
237.429200 0.407957
237.636000 0.254801
237.842900 -0.589651
238.049800 2.918555
238.256700 0.623829
238.463600 1.128835
238.670600 0.043441
238.877500 0.023980
239.084500 -2.283301
239.291500 0.819802
239.498500 -0.123703
239.705500 -0.381033
239.912500 -0.387898
240.119500 -0.417014
240.326600 -0.778618
240.533700 0.000000
240.740700 1.259448
240.947800 0.011702
241.154900 0.318033
241.362100 3.108227
241.569200 2.632457
241.776400 -0.234373
241.983500 0.135544
242.190700 -0.026678
242.397900 -2.802774
242.605100 -0.593479
242.812400 0.774798
243.019600 3.242293
243.226900 2.710117
243.434100 -0.093182
243.641400 0.068011
243.848700 -0.169577
244.056000 -2.788168
244.263400 0.420216
244.470700 1.721058
244.678100 0.057941
244.885400 2.945469
245.092800 2.682145
245.300200 2.357935
245.507600 0.499419
245.715100 3.034628
245.922500 0.132363
246.130000 1.230449
246.337500 0.133949
246.544900 -0.185864
246.752400 0.064661
246.960000 0.027258
247.167500 3.215373
247.375000 -2.440909
247.582600 -0.023890
247.790200 0.201645
247.997800 3.025715
248.205400 3.262925
248.413000 0.696648
248.620600 0.698157
248.828300 0.282100
249.035900 0.343071
249.243600 0.652863
249.451300 0.070741
249.659000 0.524182
249.866700 3.168203
250.074500 3.226342
250.282200 3.189490
250.490000 0.416298
250.697800 1.485227
250.905600 0.196706
251.113400 2.929930
251.321200 -0.537992
251.529000 2.008600
251.736900 3.177536
251.944700 3.186674
252.152600 3.289589
252.360500 0.178638
252.568400 2.662758
252.776300 -0.359456
252.984300 2.902003
253.192200 2.985426
253.400200 2.935003
253.608200 2.599883
253.816200 3.282396
254.024200 -0.133727
254.232200 -0.749082
254.440200 -2.531479
254.648300 2.769377
254.856400 -0.192194
255.064400 -0.320240
255.272500 0.624848
255.480600 1.170330
255.688800 -2.557507
255.896900 3.030195
256.105100 0.511827
256.313200 0.084431
256.521400 -0.077887
256.729600 3.025715
256.937800 3.171434
257.146000 -0.286363
257.354300 -2.406540
257.562500 0.555760
257.770800 -2.627366
257.979100 1.260848
258.187400 2.833784
258.395700 0.676245
258.604000 3.034628
258.812400 -0.410116
259.020700 3.026125
259.229100 -0.063987
259.437500 0.037872
259.645900 1.385469
259.854300 2.878522
260.062700 1.482029
260.271100 -0.503328
260.479600 3.097604
260.688100 2.562293
260.896500 0.228367
261.105000 2.089905
261.313500 0.388180
261.522100 3.142702
261.730600 0.088628
261.939200 2.701568
262.147700 1.346442
262.356300 2.745075
262.564900 0.360467
262.773500 0.219882
262.982200 3.198382
263.190800 0.000000
263.399500 3.206826
263.608100 3.039017
263.816800 3.034628
264.025500 0.026983
264.234200 -0.820274
264.442900 -0.634451
264.651700 -0.040382
264.860400 0.728259
265.069200 3.051153
265.278000 2.990339
265.486800 -0.148613
265.695600 -0.256469
265.904400 0.120263
266.113300 2.599883
266.322100 3.063333
266.531000 -0.429810
266.739900 -0.508307
266.948800 3.125806
267.157700 0.014977
267.366600 3.055378
267.575500 2.498311
267.784500 2.550228
267.993500 2.994757
268.202400 2.970812
268.411400 0.353217
268.620500 0.948262
268.829500 2.474944
269.038500 -0.282689
269.247600 0.637910
269.456600 0.074102
269.665700 -0.040794
269.874800 2.907411
270.083900 3.255273
270.293100 -2.893762
270.502200 1.221715
270.711400 2.127105
270.920500 -0.082670
271.129700 -0.132176
271.338900 0.510305
271.548100 2.691965
271.757300 0.527768
271.966600 0.417665
272.175800 0.746130
272.385100 3.132580
272.594400 2.669782
272.803700 3.021603
273.013000 2.799341
273.222300 0.346397
273.431600 3.165244
273.641000 3.209783
273.850400 1.339840
274.059700 -0.211798
274.269100 0.365038
274.478500 2.649821
274.688000 0.150533
274.897400 -0.092754
275.106900 -1.225839
275.316300 0.407018
275.525800 3.067071
275.735300 0.000000
275.944800 2.965672
276.154300 0.379457
276.363900 0.430774
276.573400 2.840106
276.783000 0.492916
276.992600 2.846955
277.202200 3.047275
277.411800 -0.522879
277.621400 -0.417033
277.831000 0.377444
278.040700 0.675109
278.250300 0.317774
278.460000 0.053552
278.669700 2.980458
278.879400 -0.273748
279.089100 2.691965
279.298900 0.060111
279.508600 3.025715
279.718400 3.272770
279.928100 -2.406540
280.137900 3.215373
280.347700 2.632457
280.557600 1.026448
280.767400 0.351488
280.977200 2.571126
281.187100 0.000000
281.397000 3.089905
281.606900 0.000000
281.816800 0.041699
282.026700 2.357935
282.236600 1.573275
282.446600 2.924279
282.656500 -2.706718
282.866500 2.791691
283.076500 0.162365
283.286500 3.115278
283.496500 3.030600
283.706500 2.907411
283.916600 -0.327949
284.126600 -2.024720
284.336700 2.966142
284.546800 -0.371330
284.756900 3.025715
284.967000 1.253074
285.177100 3.042969
285.387300 -2.706718
285.597400 0.434970
285.807600 2.127105
286.017800 3.294246
286.228000 -3.088490
286.438200 0.164968
286.648400 2.940516
286.858700 0.637924
287.068900 0.155117
287.279200 -0.226396
287.489500 2.414973
287.699800 -0.035271
287.910100 0.388180
288.120400 3.047275
288.330800 2.220108
288.541100 3.352954
288.751500 -0.340023
288.961900 1.000668
289.172300 0.000000
289.382700 0.317420
289.593100 0.806074
289.803500 -2.440909
290.014000 2.980458
290.224500 -0.140845
290.434900 0.000000
290.645400 -0.257489
290.855900 2.653213
291.066500 1.784400
291.277000 2.744293
291.487500 -0.190403
291.698100 2.768638
291.908700 2.338456
292.119300 0.883093
292.329900 3.042969
292.540500 0.021636
292.751100 0.453741
292.961800 -3.065580
293.172400 3.171434
293.383100 0.000000
293.593800 0.389452
293.804500 0.126328
294.015200 0.110640
294.226000 -2.724276
294.436700 -0.258326
294.647500 2.866287
294.858200 0.115775
295.069000 0.726999
295.279800 0.923483
295.490600 0.000000
295.701500 1.029801
295.912300 3.082785
296.123200 3.247728
296.334000 2.719331
296.544900 1.955081
296.755800 3.220892
296.966700 -0.224058
297.177700 -0.150254
297.388600 0.307637
297.599500 2.269513
297.810500 3.090258
298.021500 3.149219
298.232500 0.431364
298.443500 0.046743
298.654500 0.228635
298.865600 3.125806
299.076600 2.622214
299.287700 -1.643453
299.498800 0.459972
299.709900 2.902003
299.921000 1.591065
300.132100 -0.057594
300.343200 0.237424
300.554400 0.164072
300.765500 0.351271
300.976700 0.000000
301.187900 3.104487
301.399100 -0.470398
301.610300 3.129368
301.821500 0.022711
302.032800 -0.006103
302.244100 3.017451
302.455300 0.921513
302.666600 3.063333
302.877900 0.453287
303.089200 2.357935
303.300600 3.209783
303.511900 0.197757
303.723300 2.924279
303.934600 2.884795
304.146000 -2.318957
304.357400 1.071241
304.568800 -0.186066
304.780300 0.823073
304.991700 2.784617
305.203100 2.271842
305.414600 3.198382
305.626100 -0.412252
305.837600 0.343791
306.049100 2.775974
306.260600 1.021769
306.472200 2.245513
306.683700 0.129057
306.895300 0.467978
307.106900 0.700245
307.318400 3.034628
307.530100 3.165244
307.741700 -0.162770
307.953300 3.332236
308.165000 0.000000
308.376600 3.265290
308.588300 1.212909
308.800000 0.927017
309.011700 0.683630
309.223400 2.824776
309.435100 -0.518701
309.646900 0.367350
309.858600 1.411543
310.070400 0.298456
310.282200 -1.410174
310.494000 0.638770
310.705800 3.168203
310.917600 3.047275
311.129500 0.023202
311.341300 -0.010836
311.553200 3.180413
311.765100 0.963158
311.977000 3.142702
312.188900 0.049192
312.400800 3.030600
312.612700 0.255441
312.824700 0.195820
313.036600 0.014391
313.248600 3.332034
313.460600 2.698535
313.672600 3.275081
313.884600 3.086360
314.096700 0.158974
314.308700 3.475962
314.520800 3.104828
314.732800 0.871298
314.944900 3.146128
315.157000 0.574691
315.369200 -0.048512
315.581300 0.580358
315.793400 -0.119842
316.005600 0.130128
316.217700 3.168203
316.429900 0.147140
316.642100 0.798987
316.854300 1.064388
317.066600 3.463445
317.278800 1.047924
317.491100 0.719532
317.703300 1.401761
317.915600 0.764967
318.127900 0.448373
318.340200 1.454152
318.552500 -0.056481
318.764900 0.906253
318.977200 3.437592
319.189600 3.030195
319.401900 0.895845
319.614300 2.943989
319.826700 1.548836
320.039200 3.358886
320.251600 0.270391
320.464000 3.336260
320.676500 0.434701
320.889000 2.465383
321.101400 0.560720
321.313900 0.641882
321.526500 0.829271
321.739000 3.376577
321.951500 0.867598
322.164100 0.505214
322.376600 0.987690
322.589200 3.362859
322.801800 0.349131
323.014400 3.360972
323.227000 3.354876
323.439700 0.412948
323.652300 0.177929
323.865000 3.374748
324.077700 3.558108
324.290400 1.948541
324.503100 0.847101
324.715800 3.399154
324.928500 0.315108
325.141200 3.384174
325.354000 0.526099
325.566800 3.389875
325.779600 0.593970
325.992400 1.952982
326.205200 1.136036
326.418000 3.474362
326.630800 3.581495
326.843700 0.285052
327.056600 1.072459
327.269400 0.252918
327.482300 3.531990
327.695200 3.385964
327.908200 3.508395
328.121100 3.453930
328.334000 0.331409
328.547000 1.308309
328.760000 3.502700
328.973000 3.578983
329.186000 0.806915
329.399000 1.416532
329.612000 0.871192
329.825100 0.836793
330.038100 1.505150
330.251200 3.572872
330.464300 3.658298
330.677400 3.635484
330.890500 1.237224
331.103600 0.557519
331.316700 3.641970
331.529900 1.374996
331.743100 3.583879
331.956200 3.661339
332.169400 0.804782
332.382600 3.520876
332.595900 0.564219
332.809100 3.604766
333.022300 0.383952
333.235600 1.051405
333.448900 1.097727
333.662200 1.433290
333.875500 1.163904
334.088800 1.015824
334.302100 0.475939
334.515400 0.741833
334.728800 0.510573
334.942200 1.095477
335.155500 1.767327
335.368900 1.129498
335.582300 0.530289
335.795800 3.676968
336.009200 0.521107
336.222700 3.666237
336.436100 3.725258
336.649600 3.795949
336.863100 3.676053
337.076600 3.787035
337.290100 3.741388
337.503600 1.737599
337.717200 0.337522
337.930700 3.722716
338.144300 3.781037
338.357900 3.656290
338.571500 3.715669
338.785100 0.696739
338.998700 1.298821
339.212400 3.815312
339.426000 0.517908
339.639700 3.667266
339.853300 0.565565
340.067000 1.458087
340.280700 1.437214
340.494500 0.932741
340.708200 3.745543
340.921900 3.796644
341.135700 0.395107
341.349500 3.731266
341.563300 0.832925
341.777100 3.818094
341.990900 1.090014
342.204700 3.816042
342.418500 1.066458
342.632400 3.830460
342.846300 3.839164
343.060100 3.693023
343.274000 1.293558
343.487900 2.058835
343.701900 0.950707
343.915800 3.793022
344.129700 3.873611
344.343700 3.778006
344.557700 1.710738
344.771700 1.403154
344.985700 3.914502
345.199700 1.110208
345.413700 1.184638
345.627700 3.783332
345.841800 0.965265
346.055900 3.854124
346.269900 3.868644
346.484000 3.898615
346.698100 3.825686
346.912300 0.881390
347.126400 1.199294
347.340600 1.250804
347.554700 3.883264
347.768900 3.886321
347.983100 1.293698
348.197300 3.889246
348.411500 2.067957
348.625700 1.335281
348.840000 0.817628
349.054200 0.937972
349.268500 2.018391
349.482800 3.888011
349.697100 0.915168
349.911400 1.120436
350.125700 3.910571
350.340000 3.937869
350.554400 0.885014
350.768700 1.188531
350.983100 1.230292
351.197500 1.019427
351.411900 3.984437
351.626300 3.954918
351.840700 1.118555
352.055200 3.931966
352.269600 1.102138
352.484100 0.909459
352.698600 1.583532
352.913100 1.079953
353.127600 3.993348
353.342100 2.304814
353.556600 0.929133
353.771200 4.007534
353.985800 1.470886
354.200300 1.224180
354.414900 0.884879
354.629500 3.907143
354.844100 0.898059
355.058800 3.971879
355.273400 3.971369
355.488100 0.964653
355.702700 3.991448
355.917400 1.290560
356.132100 0.857769
356.346800 3.982000
356.561500 1.828273
356.776300 2.330875
356.991000 2.069393
357.205800 0.962778
357.420600 3.988202
357.635300 1.612829
357.850100 1.069716
358.065000 3.991935
358.279800 0.816493
358.494600 3.959995
358.709500 4.012879
358.924300 3.975799
359.139200 1.370830
359.354100 3.988202
359.569000 4.007534
359.783900 3.987264
359.998900 0.899798
360.213800 4.019947
360.428800 1.744238
360.643800 3.982497
360.858700 0.927925
361.073700 4.040048
361.288800 1.354613
361.503800 4.026452
361.718800 3.995196
361.933900 1.340937
362.148900 1.411561
362.364000 1.625497
362.579100 1.560418
362.794200 0.899525
363.009300 0.751688
363.224500 4.031206
363.439600 1.355894
363.654800 4.034989
363.869900 0.789366
364.085100 1.150128
364.300300 4.010681
364.515500 1.100200
364.730800 1.356127
364.946000 1.649067
365.161200 1.110306
365.376500 4.086360
365.591800 4.054805
365.807100 1.263007
366.022400 1.949237
366.237700 1.637112
366.453000 1.345508
366.668400 1.120425
366.883700 1.290579
367.099100 4.077622
367.314500 4.085968
367.529900 1.142582
367.745300 4.114678
367.960700 4.089375
368.176100 1.652162
368.391600 4.101850
368.607000 1.552241
368.822500 1.484535
369.038000 4.150173
369.253500 4.100405
369.469000 4.123721
369.684500 1.903978
369.900100 1.409636
370.115600 4.067926
370.331200 0.994385
370.546800 1.996799
370.762400 1.214812
370.978000 4.107990
371.193600 1.416822
371.409200 4.124798
371.624900 1.316231
371.840500 4.181129
372.056200 0.896057
372.271900 4.101128
372.487600 1.492654
372.703300 1.388764
372.919000 1.161236
373.134800 4.137671
373.350500 0.933605
373.566300 4.154637
373.782000 0.943488
373.997800 1.728589
374.213600 1.262681
374.429400 4.167613
374.645300 1.288452
374.861100 2.523865
375.077000 1.287479
375.292800 2.075119
375.508700 4.212241
375.724600 4.210586
375.940500 1.249455
376.156400 1.941154
376.372400 4.242367
376.588300 1.313411
376.804300 1.103422
377.020300 4.247581
377.236200 2.025330
377.452200 2.093725
377.668200 0.879783
377.884300 1.819449
378.100300 2.318767
378.316400 4.291879
378.532400 1.864488
378.748500 1.577080
378.964600 1.430497
379.180700 4.308394
379.396800 1.989809
379.612900 4.277861
379.829100 1.567242
380.045200 1.544608
380.261400 1.558595
380.477600 2.142994
380.693800 4.279302
380.910000 1.112994
381.126200 1.289788
381.342400 1.392589
381.558700 1.718403
381.774900 4.288607
381.991200 4.304318
382.207500 4.314668
382.423800 1.614778
382.640100 1.673167
382.856400 4.341336
383.072800 1.612784
383.289100 1.910133
383.505500 4.335458
383.721900 2.415943
383.938200 1.324112
384.154600 4.044069
384.371100 1.180020
384.587500 1.575737
384.803900 4.366890
385.020400 1.237906
385.236800 4.356332
385.453300 2.198217
385.669800 2.406203
385.886300 1.062547
386.102800 4.360120
386.319400 1.947972
386.535900 1.502154
386.752500 2.105279
386.969000 1.740307
387.185600 1.468362
387.402200 1.282607
387.618800 4.400573
387.835500 1.071457
388.052100 1.223484
388.268700 1.332302
388.485400 1.069313
388.702100 1.766547
388.918800 1.995842
389.135500 1.122846
389.352200 1.054225
389.568900 1.119843
389.785600 0.922112
390.002400 0.973912
390.219200 1.029892
390.435900 0.996022
390.652700 0.741587
390.869500 0.866679
391.086300 0.866016
391.303200 0.972481
391.520000 0.841792
391.736900 0.916819
391.953700 0.764617
392.170600 0.764239
392.387500 0.695240
392.604400 0.723872
392.821300 0.643031
393.038300 0.758755
393.255200 0.644175
393.472200 0.646885
393.689100 0.590270
393.906100 0.616014
394.123100 0.582780
394.340100 0.623452
394.557200 0.590695
394.774200 0.588478
394.991200 0.516994
395.208300 0.514603
395.425400 0.458302
395.642500 0.562345
395.859600 0.566165
396.076700 0.473876
396.293800 0.454830
396.510900 0.444658
396.728100 0.441349
396.945300 0.586915
397.162400 0.432303
397.379600 0.430818
397.596800 0.366862
397.814000 0.390202
398.031300 0.366741
398.248500 0.415504
398.465800 0.384300
398.683000 0.371391
398.900300 0.348578
399.117600 0.401904
399.334900 0.346151
399.552200 0.367943
399.769600 0.375956
399.986900 0.349863
400.204300 0.339773
400.421600 0.376256
400.639000 0.326069
400.856400 0.298506
401.073800 0.391980
401.291200 0.264368
401.508700 0.287736
401.726100 0.277820
401.943600 0.273488
402.161000 0.288238
402.378500 0.242813
402.596000 0.306746
402.813500 0.222341
403.031000 0.322641
403.248600 0.244658
403.466100 0.245565
403.683700 0.247508
403.901300 0.236001
404.118900 0.246522
404.336500 0.242928
404.554100 0.213606
404.771700 0.245852
404.989300 0.222278
405.207000 0.198338
405.424600 0.217236
405.642300 0.178696
405.860000 0.228160
406.077700 0.204179
406.295400 0.168649
406.513100 0.184751
406.730900 0.184864
406.948600 0.183281
407.166400 0.140373
407.384200 0.194508
407.602000 0.146289
407.819800 0.161596
408.037600 0.214965
408.255400 0.180171
408.473300 0.140209
408.691100 0.153299
408.909000 0.194629
409.126900 0.168509
409.344800 0.198210
409.562700 0.102771
409.780600 0.171040
409.998500 0.180285
410.216500 0.138095
410.434400 0.154560
410.652400 0.153553
410.870400 0.141197
411.088400 0.151595
411.306400 0.145995
411.524400 0.171930
411.742400 0.137046
411.960500 0.122098
412.178500 0.147614
412.396600 0.134386
412.614700 0.142412
412.832800 0.120853
413.050900 0.152794
413.269000 0.119276
413.487100 0.124470
413.705300 0.132446
413.923400 0.161557
414.141600 0.139385
414.359800 0.147364
414.578000 0.157255
414.796200 0.143229
415.014400 0.121569
415.232600 0.122544
415.450900 0.121169
415.669200 0.087560
415.887400 0.157862
416.105700 0.165099
416.324000 0.129914
416.542300 0.107621
416.760600 0.114951
416.979000 0.122482
417.197300 0.154849
417.415700 0.097512
417.634100 0.123095
417.852400 0.150981
418.070800 0.101387
418.289300 0.137503
418.507700 0.109782
418.726100 0.102335
418.944600 0.113229
419.163000 0.103629
419.381500 0.103794
419.600000 0.120614
419.818500 0.107513
420.037000 0.091378
420.255500 0.105639
420.474100 0.101066
420.692600 0.140721
420.911200 0.129820
421.129800 0.118763
421.348300 0.121321
421.566900 0.142237
421.785600 0.121965
422.004200 0.120651
422.222800 0.122759
422.441500 0.148385
422.660100 0.110068
422.878800 0.141457
423.097500 0.108613
423.316200 0.087705
423.534900 0.119780
423.753600 0.126924
423.972400 0.121871
424.191100 0.129984
424.409900 0.126426
424.628700 0.157024
424.847500 0.130491
425.066300 0.137175
425.285100 0.119623
425.503900 0.127917
425.722800 0.145135
425.941600 0.142043
426.160500 0.125120
426.379300 0.129505
426.598200 0.142568
426.817100 0.118874
427.036100 0.134699
427.255000 0.130047
427.473900 0.146011
427.692900 0.158904
427.911800 0.153534
428.130800 0.104130
428.349800 0.137489
428.568800 0.117883
428.787800 0.121860
429.006800 0.142610
429.225900 0.155336
429.444900 0.111627
429.664000 0.113239
429.883100 0.169311
430.102200 0.119009
430.321300 0.136227
430.540400 0.157455
430.759500 0.129741
430.978700 0.163936
431.197800 0.136553
431.417000 0.124466
431.636200 0.133656
431.855300 0.132483
432.074500 0.131897
432.293800 0.116461
432.513000 0.184726
432.732200 0.141785
432.951500 0.188561
433.170700 0.164253
433.390000 0.142936
433.609300 0.162362
433.828600 0.177455
434.047900 0.201657
434.267300 0.183319
434.486600 0.149780
434.705900 0.157045
434.925300 0.179946
435.144700 0.150140
435.364100 0.168373
435.583500 0.171730
435.802900 0.148260
436.022300 0.156747
436.241800 0.173302
436.461200 0.181017
436.680700 0.174016
436.900100 0.171996
437.119600 0.152601
437.339100 0.176051
437.558600 0.164075
437.778200 0.169756
437.997700 0.186769
438.217300 0.203416
438.436800 0.178130
438.656400 0.224472
438.876000 0.177183
439.095600 0.172590
439.315200 0.182016
439.534800 0.177808
439.754500 0.162542
439.974100 0.194923
440.193800 0.193903
440.413500 0.225592
440.633100 0.191836
440.852800 0.224834
441.072500 0.218069
441.292300 0.200768
441.512000 0.219354
441.731800 0.192603
441.951500 0.194780
442.171300 0.196816
442.391100 0.204166
442.610900 0.221835
442.830700 0.227596
443.050500 0.195822
443.270300 0.191469
443.490200 0.196442
443.710100 0.234279
443.929900 0.219733
444.149800 0.205278
444.369700 0.230966
444.589600 0.200195
444.809500 0.216959
445.029500 0.244360
445.249400 0.234028
445.469400 0.249138
445.689400 0.243500
445.909300 0.216408
446.129300 0.262116
446.349300 0.253485
446.569400 0.262249
446.789400 0.243036
447.009400 0.269173
447.229500 0.257002
447.449600 0.263384
447.669600 0.281923
447.889700 0.259062
448.109800 0.248496
448.330000 0.256069
448.550100 0.268807
448.770200 0.253104
448.990400 0.265339
449.210600 0.311721
449.430700 0.255067
449.650900 0.308909
449.871100 0.248398
450.091400 0.266332
450.311600 0.310952
450.531800 0.313077
450.752100 0.253569
450.972400 0.280475
451.192600 0.288078
451.412900 0.248640
451.633200 0.289079
451.853500 0.274180
452.073900 0.262864
452.294200 0.327701
452.514600 0.300933
452.734900 0.325743
452.955300 0.315483
453.175700 0.339646
453.396100 0.333126
453.616500 0.318494
453.836900 0.324116
454.057400 0.350516
454.277800 0.325449
454.498300 0.335555
454.718800 0.355768
454.939300 0.334606
455.159700 0.294199
455.380300 0.341252
455.600800 0.337167
455.821300 0.347545
456.041900 0.313046
456.262400 0.350473
456.483000 0.391846
456.703600 0.338545
456.924200 0.369836
457.144800 0.381838
457.365400 0.390879
457.586000 0.386506
457.806700 0.383192
458.027400 0.399962
458.248000 0.371248
458.468700 0.397812
458.689400 0.369620
458.910100 0.377714
459.130800 0.403741
459.351600 0.384579
459.572300 0.395526
459.793100 0.434807
460.013800 0.415208
460.234600 0.401666
460.455400 0.401736
460.676200 0.406063
460.897000 0.397005
461.117800 0.466066
461.338700 0.430948
461.559500 0.436042
461.780400 0.410227
462.001300 0.451784
462.222200 0.443196
462.443100 0.441628
462.664000 0.407261
462.884900 0.430141
463.105900 0.434228
463.326800 0.451034
463.547800 0.510078
463.768700 0.407683
463.989700 0.522941
464.210700 0.440589
464.431700 0.494250
464.652800 0.487964
464.873800 0.520324
465.094800 0.532012
465.315900 0.517663
465.537000 0.483043
465.758100 0.520073
465.979200 0.537910
466.200300 0.500774
466.421400 0.505877
466.642500 0.529308
466.863700 0.574714
467.084800 0.521437
467.306000 0.529424
467.527200 0.530440
467.748400 0.567411
467.969600 0.532878
468.190800 0.584499
468.412000 0.541210
468.633300 0.548725
468.854500 0.565523
469.075800 0.562209
469.297000 0.557161
469.518300 0.626766
469.739600 0.560828
469.961000 0.553374
470.182300 0.509667
470.403600 0.557216
470.625000 0.578597
470.846300 0.633745
471.067700 0.583038
471.289100 0.641056
471.510500 0.616286
471.731900 0.604289
471.953300 0.656104
472.174800 0.679199
472.396200 0.639087
472.617700 0.626375
472.839100 0.673514
473.060600 0.657007
473.282100 0.622062
473.503600 0.609778
473.725100 0.662632
473.946700 0.695500
474.168200 0.789808
474.389800 0.748989
474.611300 0.693623
474.832900 0.775410
475.054500 0.692021
475.276100 0.702636
475.497700 0.672619
475.719300 0.756139
475.941000 0.683423
476.162600 0.740291
476.384300 0.750001
476.606000 0.785400
476.827700 0.743755
477.049400 0.687503
477.271100 0.772167
477.492800 0.763890
477.714500 0.756685
477.936300 0.837077
478.158000 0.719704
478.379800 0.791036
478.601600 0.806468
478.823400 0.679640
479.045200 0.765862
479.267000 0.788782
479.488800 0.818544
479.710700 0.764230
479.932500 0.969146
480.154400 0.846883
480.376300 0.845788
480.598200 0.799060
480.820100 0.819373
481.042000 0.778910
481.263900 0.821859
481.485900 0.829538
481.707800 0.897228
481.929800 0.843184
482.151700 0.819357
482.373700 0.886082
482.595700 0.842596
482.817700 0.788967
483.039800 0.943803
483.261800 0.925678
483.483800 0.905629
483.705900 0.776982
483.928000 0.868598
484.150100 0.896372
484.372100 0.994238
484.594300 0.883642
484.816400 0.853480
485.038500 0.941490
485.260600 1.021010
485.482800 0.953466
485.705000 0.925159
485.927100 0.944926
486.149300 0.987773
486.371500 0.945059
486.593700 0.975565
486.816000 0.966271
487.038200 0.961516
487.260500 0.950912
487.482700 0.972779
487.705000 1.018774
487.927300 0.987349
488.149600 1.025501
488.371900 1.052292
488.594200 0.906730
488.816500 0.984658
489.038900 1.052706
489.261200 1.077790
489.483600 1.088369
489.706000 1.162511
489.928400 1.019700
490.150800 1.038116
490.373200 1.086411
490.595600 0.977762
490.818000 1.066862
491.040500 0.989902
491.263000 1.021349
491.485400 1.096000
491.707900 1.064630
491.930400 1.096952
492.152900 0.996853
492.375500 1.100234
492.598000 1.026493
492.820500 1.145175
493.043100 1.003707
493.265700 1.181884
493.488200 1.097915
493.710800 1.069617
493.933400 1.150032
494.156100 1.124633
494.378700 1.271752
494.601300 1.241349
494.824000 1.056469
495.046600 1.075707
495.269300 1.179235
495.492000 1.295349
495.714700 1.133022
495.937400 1.063678
496.160100 1.060072
496.382900 1.186270
496.605600 1.149877
496.828400 1.167826
497.051100 1.140347
497.273900 1.259068
497.496700 1.090491
497.719500 1.142579
497.942300 1.049727
498.165200 1.239586
498.388000 1.048331
498.610900 1.063053
498.833700 1.094227
499.056600 1.223382
499.279500 1.155119
499.502400 1.139927
499.725300 1.271890
499.948200 1.252775
500.171200 1.161062
500.394100 1.231462
500.617100 1.241315
500.840000 1.279774
501.063000 1.281051
501.286000 1.202590
501.509000 1.191426
501.732000 1.194316
501.955100 1.244626
502.178100 1.357342
502.401200 1.180395
502.624200 1.111184
502.847300 1.155587
503.070400 1.948196
503.293500 1.117995
503.516600 1.197752
503.739700 1.083428
503.962800 1.204564
504.186000 1.137209
504.409200 1.249351
504.632300 1.241913
504.855500 1.457602
505.078700 1.080157
505.301900 1.237273
505.525100 1.105971
505.748300 1.322295
505.971600 1.132419
506.194800 1.168148
506.418100 1.160520
506.641400 1.247976
506.864700 1.271015
507.088000 1.421008
507.311300 1.253973
507.534600 1.372978
507.757900 1.247230
507.981300 1.203753
508.204600 1.093294
508.428000 1.295844
508.651400 1.200285
508.874800 1.078328
509.098200 1.136638
509.321600 1.148477
509.545000 1.129540
509.768500 1.277795
509.991900 1.279188
510.215400 1.158119
510.438800 1.053598
510.662300 1.089786
510.885800 1.255254
511.109300 1.250073
511.332900 1.123409
511.556400 1.450956
511.779900 1.199065
512.003500 1.216950
512.227000 1.215766
512.450600 1.047925
512.674200 1.192341
512.897800 1.152553
513.121400 1.056095
513.345100 1.266250
513.568700 1.182087
513.792300 1.571049
514.016000 1.083271
514.239700 1.230902
514.463400 1.198579
514.687100 1.053269
514.910800 1.238593
515.134500 1.247706
515.358200 1.426332
515.581900 1.257077
515.805700 1.241969
516.029500 1.108253
516.253200 1.119085
516.477000 1.210647
516.700800 1.263703
516.924600 1.141202
517.148500 1.010980
517.372300 1.154851
517.596100 1.410237
517.820000 1.156438
518.043900 1.047436
518.267700 1.152055
518.491600 1.043997
518.715500 1.225936
518.939500 1.260736
519.163400 1.145828
519.387300 1.191616
519.611300 1.219602
519.835200 1.105882
520.059200 1.191513
520.283200 1.242264
520.507200 1.083285
520.731200 0.987739
520.955200 1.028355
521.179200 1.299990
521.403300 1.165745
521.627300 1.098539
521.851400 0.887519
522.075500 1.045221
522.299600 1.109161
522.523700 1.063280
522.747800 1.031650
522.971900 1.193283
523.196000 1.133610
523.420200 1.064527
523.644300 0.983303
523.868500 1.061445
524.092700 0.983265
524.316900 1.151158
524.541100 1.111656
524.765300 0.999965
524.989500 1.100697
525.213800 1.023833
525.438000 1.010422
525.662300 1.197516
525.886500 0.920287
526.110800 0.956580
526.335100 0.835916
526.559400 0.943724
526.783700 1.055963
527.008100 0.927853
527.232400 1.077453
527.456800 1.151266
527.681100 1.016600
527.905500 0.975949
528.129900 0.949987
528.354300 1.055337
528.578700 0.917972
528.803100 0.972092
529.027600 0.908521
529.252000 0.856091
529.476500 0.787291
529.700900 1.020652
529.925400 0.889787
530.149900 0.943789
530.374400 1.025056
530.598900 0.996832
530.823400 0.896348
531.048000 0.856761
531.272500 0.891590
531.497100 1.007504
531.721700 0.844879
531.946200 0.860796
532.170800 0.952241
532.395400 0.869312
532.620000 0.738090
532.844700 0.977124
533.069300 0.822442
533.294000 0.820948
533.518600 0.828052
533.743300 0.737305
533.968000 0.762067
534.192700 0.808381
534.417400 0.819062
534.642100 0.820668
534.866800 0.807171
535.091600 0.773394
535.316300 0.750936
535.541100 0.786833
535.765900 0.737653
535.990700 0.764096
536.215500 0.708975
536.440300 0.784050
536.665100 0.702128
536.889900 0.746413
537.114800 0.670424
537.339600 0.664322
537.564500 0.772562
537.789400 0.824805
538.014300 0.702234
538.239200 0.748446
538.464100 0.683779
538.689000 0.738782
538.913900 0.728517
539.138900 0.703092
539.363800 0.718099
539.588800 0.671651
539.813800 0.690397
540.038800 0.722671
540.263800 0.611682
540.488800 0.607843
540.713800 0.611921
540.938900 0.627267
541.163900 0.586988
541.389000 0.658878
541.614000 0.601070
541.839100 0.629084
542.064200 0.551875
542.289300 0.655496
542.514400 0.595601
542.739600 0.585254
542.964700 0.576445
543.189900 0.617038
543.415000 0.548244
543.640200 0.582059
543.865400 0.559993
544.090600 0.505535
544.315800 0.515511
544.541000 0.563557
544.766200 0.545264
544.991500 0.508684
545.216700 0.555925
545.442000 0.489969
545.667300 0.536093
545.892600 0.538226
546.117900 0.519017
546.343200 0.498589
546.568500 0.461240
546.793800 0.465967
547.019200 0.489069
547.244500 0.485434
547.469900 0.448588
547.695300 0.462633
547.920600 0.464465
548.146000 0.448896
548.371500 0.503537
548.596900 0.452343
548.822300 0.440207
549.047800 0.458008
549.273200 0.428198
549.498700 0.438211
549.724200 0.432952
549.949600 0.455877
550.175100 0.409874
550.400700 0.408859
550.626200 0.395211
550.851700 0.390135
551.077300 0.385232
551.302800 0.444018
551.528400 0.361007
551.754000 0.389607
551.979600 0.384809
552.205200 0.365499
552.430800 0.438676
552.656400 0.372048
552.882000 0.407966
553.107700 0.346951
553.333300 0.370013
553.559000 0.346341
553.784700 0.350719
554.010400 0.364248
554.236100 0.360635
554.461800 0.364898
554.687500 0.360036
554.913200 0.289851
555.139000 0.333984
555.364800 0.322609
555.590500 0.306392
555.816300 0.324518
556.042100 0.317102
556.267900 0.335325
556.493700 0.308522
556.719500 0.291828
556.945400 0.297264
557.171200 0.277909
557.397100 0.291368
557.623000 0.348616
557.848800 0.270063
558.074700 0.285514
558.300600 0.255552
558.526600 0.288652
558.752500 0.266598
558.978400 0.300555
559.204400 0.289225
559.430300 0.244073
559.656300 0.256979
559.882300 0.259392
560.108300 0.239284
560.334300 0.254761
560.560300 0.267557
560.786300 0.263895
561.012400 0.254117
561.238400 0.252504
561.464500 0.201039
561.690500 0.264987
561.916600 0.228934
562.142700 0.217654
562.368800 0.212056
562.594900 0.252905
562.821100 0.225534
563.047200 0.223106
563.273300 0.213100
563.499500 0.202101
563.725700 0.201687
563.951900 0.189344
564.178100 0.190991
564.404300 0.199273
564.630500 0.192202
564.856700 0.201746
565.082900 0.178619
565.309200 0.198956
565.535500 0.203127
565.761700 0.194170
565.988000 0.194425
566.214300 0.160643
566.440600 0.165679
566.666900 0.166445
566.893200 0.162566
567.119600 0.151674
567.345900 0.172714
567.572300 0.185873
567.798700 0.143669
568.025000 0.165594
568.251400 0.154627
568.477800 0.153853
568.704300 0.156948
568.930700 0.143357
569.157100 0.159974
569.383600 0.133426
569.610000 0.140132
569.836500 0.143380
570.063000 0.139662
570.289500 0.138468
570.516000 0.150081
570.742500 0.132647
570.969000 0.125612
571.195600 0.141044
571.422100 0.120809
571.648700 0.135848
571.875200 0.132883
572.101800 0.132852
572.328400 0.128414
572.555000 0.129550
572.781600 0.125735
573.008200 0.118763
573.234900 0.133044
573.461500 0.120623
573.688200 0.110463
573.914900 0.120158
574.141500 0.118082
574.368200 0.109849
574.594900 0.102377
574.821600 0.096613
575.048400 0.117975
575.275100 0.114174
575.501800 0.112799
575.728600 0.102152
575.955400 0.095103
576.182100 0.118972
576.408900 0.094105
576.635700 0.097163
576.862600 0.091968
577.089400 0.084965
577.316200 0.095744
577.543100 0.094527
577.769900 0.097707
577.996800 0.089290
578.223700 0.093303
578.450500 0.084603
578.677400 0.089992
578.904400 0.078819
579.131300 0.081513
579.358200 0.080889
579.585100 0.085015
579.812100 0.083344
580.039100 0.075248
580.266000 0.073918
580.493000 0.074050
580.720000 0.068241
580.947000 0.072139
581.174100 0.075069
581.401100 0.071447
581.628100 0.068794
581.855200 0.063228
582.082200 0.068009
582.309300 0.066015
582.536400 0.057334
582.763500 0.049838
582.990600 0.058509
583.217700 0.053142
583.444900 0.050693
583.672000 0.048970
583.899100 0.055483
584.126300 0.040726
584.353500 0.050380
584.580700 0.047559
584.807900 0.061875
585.035100 0.056068
585.262300 0.060371
585.489500 0.060021
585.716700 0.048666
585.944000 0.052418
586.171300 0.049576
586.398500 0.051337
586.625800 0.049838
586.853100 0.049214
587.080400 0.053016
587.307700 0.046426
587.535000 0.046125
587.762400 0.039701
587.989700 0.034062
588.217100 0.051136
588.444500 0.049403
588.671800 0.034707
588.899200 0.045183
589.126600 0.030260
589.354000 0.044857
589.581500 0.034318
589.808900 0.036779
590.036300 0.050678
590.263800 0.033435
590.491300 0.037972
590.718700 0.039504
590.946200 0.046290
591.173700 0.043376
591.401200 0.042818
591.628800 0.046974
591.856300 0.036782
592.083800 0.043550
592.311400 0.036241
592.538900 0.034125
592.766500 0.046870
592.994100 0.042808
593.221700 0.043019
593.449300 0.039668
593.676900 0.041968
593.904600 0.027866
594.132200 0.028002
594.359800 0.024081
594.587500 0.037642
594.815200 0.027052
595.042900 0.035977
595.270500 0.033374
595.498300 0.027152
595.726000 0.032813
595.953700 0.033812
596.181400 0.024654
596.409200 0.030435
596.636900 0.029881
596.864700 0.033195
597.092500 0.021769
597.320300 0.029915
597.548100 0.036488
597.775900 0.034928
598.003700 0.028798
598.231500 0.028070
598.459400 0.029913
598.687200 0.044157
598.915100 0.043204
599.143000 0.031114
599.370900 0.037204
599.598800 0.039353
599.826700 0.029161
600.054600 0.026736
600.282500 0.030200
600.510500 0.032517
600.738400 0.028390
600.966400 0.025791
601.194400 0.024202
601.422300 0.018561
601.650300 0.014328
601.878300 0.015321
602.106400 0.027266
602.334400 0.026625
602.562400 0.020335
602.790500 0.023499
603.018500 0.020593
603.246600 0.028628
603.474700 0.025644
603.702800 0.030508
603.930900 0.021157
604.159000 0.029847
604.387100 0.021525
604.615200 0.019418
604.843400 0.030510
605.071500 0.019966
605.299700 0.026227
605.527900 0.021036
605.756100 0.013156
605.984300 0.014389
606.212500 0.007240
606.440700 -0.000315
606.668900 0.010009
606.897200 0.006955
607.125400 0.009054
607.353700 0.018752
607.581900 0.021855
607.810200 0.014386
608.038500 0.010694
608.266800 0.002047
608.495100 -0.001945
608.723500 -0.011129
608.951800 0.017248
609.180100 0.007312
609.408500 0.012372
609.636900 0.010084
609.865300 0.002356
610.093600 0.016206
610.322000 0.016257
610.550500 0.012384
610.778900 0.010605
611.007300 0.018738
611.235700 0.014205
611.464200 0.018507
611.692700 0.012977
611.921100 0.024306
612.149600 0.018515
612.378100 0.023481
612.606600 0.010777
612.835100 0.014057
613.063700 0.017535
613.292200 0.017073
613.520800 0.011614
613.749300 0.013981
613.977900 0.021504
614.206500 0.013321
614.435100 0.014345
614.663700 0.016434
614.892300 0.006289
615.120900 0.008096
615.349500 0.016843
615.578200 0.017552
615.806800 0.008769
616.035500 0.019545
616.264200 0.001393
616.492900 0.005570
616.721600 0.008325
616.950300 0.008098
617.179000 -0.000926
617.407700 0.016130
617.636500 -0.003974
617.865200 0.006135
618.094000 0.023642
618.322700 0.023458
618.551500 -0.001592
618.780300 0.002647
619.009100 0.005619
619.237900 0.015093
619.466700 0.016187
619.695600 0.013025
619.924400 0.010581
620.153300 0.012490
620.382100 0.011314
620.611000 0.003099
620.839900 0.006573
621.068800 -0.015299
621.297700 0.001237
621.526600 0.005850
621.755600 -0.003128
621.984500 0.004659
622.213500 -0.002775
622.442400 0.008718
622.671400 0.015145
622.900400 0.004270
623.129400 -0.001792
623.358400 0.007625
623.587400 0.004197
623.816400 -0.014054
624.045400 0.018724
624.274500 0.008118
624.503500 -0.001398
624.732600 -0.009154
624.961700 0.020341
625.190800 0.008408
625.419900 0.001546
625.649000 0.010044
625.878100 0.008135
626.107200 -0.003441
626.336400 -0.011881
626.565500 0.028821
626.794700 0.000511
627.023800 0.008259
627.253000 0.019276
627.482200 0.008939
627.711400 0.000067
627.940600 0.002033
628.169800 -0.005211
628.399100 -0.007526
628.628300 -0.007731
628.857600 -0.002569
629.086800 0.008130
629.316100 0.005953
629.545400 -0.002252
629.774700 0.028578
630.004000 0.021518
630.233300 0.008827
630.462600 0.014888
630.692000 0.014796
630.921300 0.008459
631.150700 -0.007880
631.380100 -0.008704
631.609400 0.017384
631.838800 0.005151
632.068200 -0.002710
632.297600 0.009585
632.527100 0.003969
632.756500 0.013708
632.985900 0.021599
633.215400 0.027363
633.444800 0.006776
633.674300 0.023828
633.903800 -0.007304
634.133300 -0.000148
634.362800 0.018896
634.592300 -0.015658
634.821800 0.015382
635.051400 -0.007615
635.280900 0.025863
635.510500 -0.023347
635.740000 0.022069
635.969600 0.031589
636.199200 0.010681
636.428800 -0.005067
636.658400 0.033849
636.888000 -0.000153
637.117700 0.002214
637.347300 0.005192
637.577000 0.024959
637.806600 0.009263
638.036300 0.008881
638.266000 -0.009504
638.495700 0.021661
638.725400 0.008488
638.955100 0.010487
639.184800 0.009811
639.414500 -0.011074
639.644300 -0.017556
639.874000 0.000965
640.103800 0.035103
640.333600 0.012087
640.563300 -0.014620
640.793100 0.002394
641.022900 -0.008185
641.252800 -0.006265
641.482600 0.024858
641.712400 0.015634
641.942300 0.018195
642.172100 0.034250
642.402000 -0.003942
642.631900 -0.004705
642.861700 0.001834
643.091600 0.022425
643.321600 -0.017623
643.551500 0.011433
643.781400 0.054301
644.011300 -0.004917
644.241300 0.018521
644.471200 -0.020166
644.701200 -0.007187
644.931200 0.027450
645.161200 0.021436
645.391200 0.009399
645.621200 0.019087
645.851200 -0.016755
646.081200 0.014671
646.311300 0.032338
646.541300 0.029565
646.771400 -0.032244
647.001500 0.035885
647.231600 -0.031993
647.461600 0.022539
647.691800 0.018073
647.921900 0.001471
648.152000 -0.016284
648.382100 -0.000029
648.612300 0.026692
648.842400 0.013203
649.072600 0.037909
649.302800 -0.005603
649.532900 0.013665
649.763100 0.017847
649.993300 -0.007316
650.223600 0.008870
650.453800 -0.003448
650.684000 0.003830
650.914300 -0.028409
651.144500 0.031369
651.374800 0.010393
651.605100 0.017566
651.835400 0.017657
652.065700 -0.011458
652.296000 0.006811
652.526300 0.014535
652.756600 -0.022331
652.987000 -0.014423
653.217300 -0.001674
653.447700 0.011891
653.678000 0.010061
653.908400 0.036311
654.138800 0.022485
654.369200 0.030668
654.599600 0.018404
654.830000 0.010093
655.060500 0.008834
655.290900 0.006673
655.521300 0.019500
655.751800 0.026959
655.982300 -0.002891
656.212800 -0.000972
656.443300 -0.001453
656.673800 -0.001228
656.904300 -0.002832
657.134800 0.020125
657.365300 0.013935
657.595900 0.011002
657.826400 0.013242
658.057000 0.015929
658.287500 0.008723
658.518100 0.005213
658.748700 0.012713
658.979300 0.006070
659.209900 -0.004894
659.440600 -0.029263
659.671200 -0.036978
659.901800 -0.053136
660.132500 -0.050735
660.363200 -0.023221
660.593800 -0.010928
660.824500 -0.013264
661.055200 0.011222
661.285900 0.037773
661.516600 0.001815
661.747400 -0.031367
661.978100 0.030410
662.208800 0.041337
662.439600 -0.007522
662.670400 0.006927
662.901100 -0.002639
663.131900 -0.000115
663.362700 -0.044439
663.593500 0.009495
663.824300 0.058906
664.055200 -0.038849
664.286000 -0.000931
664.516800 0.030633
664.747700 0.006250
664.978600 -0.005639
665.209400 0.027517
665.440300 0.054757
665.671200 0.006551
665.902100 0.021273
666.133000 0.005143
666.364000 0.002094
666.594900 0.015262
666.825900 0.032639
667.056800 0.003671
667.287800 0.003291
667.518800 0.017968
667.749700 0.045461
667.980700 0.012638
668.211700 -0.016573
668.442800 -0.025041
668.673800 0.034173
668.904800 -0.007875
669.135900 0.039280
669.366900 -0.002376
669.598000 0.008537
669.829100 0.012947
670.060200 -0.016541
670.291300 0.026076
670.522400 -0.001145
670.753500 0.010528
670.984600 -0.001737
671.215700 0.008696
671.446900 0.036986
671.678100 0.043570
671.909200 0.003505
672.140400 0.003742
672.371600 0.003265
672.602800 -0.010444
672.834000 0.016858
673.065200 -0.013175
673.296400 -0.021615
673.527700 0.018514
673.758900 -0.022244
673.990200 -0.002436
674.221400 -0.017145
674.452700 0.004560
674.684000 0.014970
674.915300 0.048487
675.146600 0.050311
675.377900 -0.012045
675.609300 0.021246
675.840600 0.047462
676.071900 0.028759
676.303300 0.006740
676.534700 0.001006
676.766100 0.013026
676.997400 -0.011537
677.228800 0.012454
677.460200 0.023713
677.691700 -0.003256
677.923100 0.025028
678.154500 -0.010281
678.386000 0.014249
678.617400 0.015251
678.848900 0.019365
679.080400 0.002305
679.311900 0.013586
679.543400 -0.015989
679.774900 -0.023137
680.006400 0.055557
680.237900 0.015892
680.469400 0.018603
680.701000 0.006270
680.932500 0.015681
681.164100 0.043834
681.395700 -0.004639
681.627300 0.025370
681.858900 0.043659
682.090500 0.021235
682.322100 -0.013554
682.553700 -0.024738
682.785400 0.003163
683.017000 -0.017545
683.248700 0.004557
683.480300 -0.001228
683.712000 -0.013440
683.943700 -0.004535
684.175400 0.025564
684.407100 0.022787
684.638800 -0.008557
684.870500 0.009973
685.102300 0.016221
685.334000 0.018009
685.565800 0.004068
685.797500 0.024574
686.029300 -0.002613
686.261100 0.021639
686.492900 0.020814
686.724700 0.006716
686.956500 -0.010904
687.188300 0.018723
687.420200 -0.005049
687.652000 0.006392
687.883800 0.004726
688.115700 0.004825
688.347600 0.030752
688.579500 0.002054
688.811400 0.003816
689.043300 0.036345
689.275200 -0.008262
689.507100 0.011358
689.739000 -0.010044
689.971000 0.024422
690.202900 0.032439
690.434900 -0.004749
690.666900 0.026212
690.898800 0.021006
691.130800 -0.010295
691.362800 0.005215
691.594800 -0.014413
691.826900 0.009036
692.058900 0.009186
692.290900 0.033750
692.523000 0.006270
692.755000 0.026356
692.987100 -0.001882
693.219200 0.013529
693.451300 0.016328
693.683400 -0.004586
693.915500 0.003736
694.147600 0.015508
694.379700 0.004786
694.611900 0.013988
694.844000 0.001232
695.076200 0.016651
695.308300 0.051291
695.540500 0.011387
695.772700 -0.015895
696.004900 0.020219
696.237100 0.014689
696.469300 -0.022100
696.701600 0.001158
696.933800 0.003567
697.166000 0.012402
697.398300 0.030412
697.630600 0.001499
697.862800 0.035751
698.095100 0.044341
698.327400 0.029437
698.559700 -0.007855
698.792000 0.004433
699.024300 0.026916
699.256700 0.017902
699.489000 0.016290
699.721400 0.006113
699.953700 0.013508
700.186100 0.002240
700.418500 -0.002974
700.650900 -0.014168
700.883300 -0.004850
701.115700 0.007501
701.348100 0.032449
701.580600 -0.024982
701.813000 0.003209
702.045400 -0.007430
702.277900 -0.011768
702.510400 0.024689
702.742900 -0.008605
702.975300 -0.010772
703.207800 0.004626
703.440300 0.020857
703.672900 0.026047
703.905400 -0.010430
704.137900 0.029457
704.370500 -0.004026
704.603000 0.041263
704.835600 0.014457
705.068200 -0.026778
705.300800 0.004190
705.533400 0.016713
705.766000 0.017160
705.998600 -0.014865
706.231200 0.002152
706.463800 0.028007
706.696500 0.017332
706.929100 0.034563
707.161800 -0.040240
707.394500 0.040951
707.627200 -0.010777
707.859900 0.024729
708.092600 0.009164
708.325300 0.008859
708.558000 0.002448
708.790700 0.017876
709.023500 0.014137
709.256200 -0.002244
709.489000 0.007923
709.721700 -0.040725
709.954500 -0.029465
710.187300 0.000647
710.420100 0.011163
710.652900 -0.010458
710.885700 0.000605
711.118600 -0.013183
711.351400 -0.008591
711.584200 -0.008980
711.817100 0.024585
712.050000 0.016191
712.282800 -0.027944
712.515700 0.004481
712.748600 0.012180
712.981500 -0.000346
713.214400 0.017278
713.447400 -0.003743
713.680300 0.006500
713.913200 0.000609
714.146200 0.013609
714.379100 -0.033948
714.612100 0.021400
714.845100 -0.010257
715.078100 0.040827
715.311100 -0.008639
715.544100 -0.002957
715.777100 -0.005222
716.010200 -0.033132
716.243200 -0.005789
716.476200 0.015324
716.709300 -0.010473
716.942400 0.006997
717.175400 -0.003434
717.408500 0.006565
717.641600 -0.007450
717.874700 0.013644
718.107800 -0.012888
718.341000 0.007906
718.574100 0.024911
718.807200 0.031081
719.040400 0.032285
719.273600 0.013499
719.506700 0.014199
719.739900 0.057765
719.973100 -0.022479
720.206300 -0.021657
720.439500 0.036176
720.672700 -0.000030
720.906000 0.011527
721.139200 -0.004591
721.372500 0.018428
721.605700 0.014739
721.839000 0.020751
722.072300 -0.014010
722.305500 0.028124
722.538800 0.018418
722.772100 0.003083
723.005500 -0.020748
723.238800 0.013198
723.472100 -0.016078
723.705500 0.011188
723.938800 0.004742
724.172200 -0.004639
724.405600 -0.012814
724.638900 0.031908
724.872300 0.002321
725.105700 0.006167
725.339100 0.028673
725.572600 0.024708
725.806000 -0.019075
726.039400 -0.003311
726.272900 0.014160
726.506300 0.013873
726.739800 0.044023
726.973300 0.016702
727.206800 0.002182
727.440300 0.026246
727.673800 0.013039
727.907300 0.022702
728.140800 0.023161
728.374300 -0.009103
728.607900 0.016212
728.841400 0.011128
729.075000 -0.008377
729.308600 -0.003502
729.542100 0.006665
729.775700 0.001344
730.009300 0.033211
730.242900 0.006117
730.476600 0.037505
730.710200 0.013578
730.943800 0.025152
731.177500 0.023417
731.411100 -0.000986
731.644800 0.039977
731.878500 0.016949
732.112200 0.005739
732.345800 0.004746
732.579500 0.020743
732.813300 0.021399
733.047000 0.007281
733.280700 0.015106
733.514500 0.001320
733.748200 0.010745
733.982000 0.006222
734.215700 -0.004672
734.449500 0.032425
734.683300 0.018011
734.917100 0.003206
735.150900 -0.015221
735.384700 -0.009164
735.618500 0.010923
735.852400 0.014064
736.086200 0.031913
736.320100 0.001442
736.553900 0.015272
736.787800 0.009131
737.021700 0.008478
737.255600 0.013572
737.489500 -0.009128
737.723400 -0.012750
737.957300 -0.005586
738.191200 -0.002908
738.425200 0.020688
738.659100 0.000658
738.893100 -0.023298
739.127100 0.000142
739.361000 -0.000652
739.595000 0.002773
739.829000 -0.004079
740.063000 -0.011215
740.297000 0.032410
740.531000 0.012092
740.765100 0.025368
740.999100 0.020735
741.233200 0.013319
741.467200 0.027945
741.701300 0.019449
741.935400 0.030633
742.169500 0.000751
742.403600 -0.021249
742.637700 0.017743
742.871800 -0.013469
743.105900 -0.023228
743.340000 -0.007681
743.574200 0.021779
743.808300 0.024951
744.042500 -0.019166
744.276700 0.000132
744.510800 0.011166
744.745000 0.010296
744.979200 0.019370
745.213400 -0.023301
745.447700 0.019824
745.681900 -0.007246
745.916100 0.032915
746.150400 0.005962
746.384600 -0.019915
746.618900 -0.014630
746.853200 0.021254
747.087400 -0.003265
747.321700 -0.004737
747.556000 0.026260
747.790300 0.050819
748.024700 -0.005770
748.259000 -0.000809
748.493300 0.025066
748.727700 0.000786
748.962000 0.015373
749.196400 0.013173
749.430800 0.023961
749.665200 0.016122
749.899500 0.008832
750.133900 0.002698
750.368400 0.002931
750.602800 -0.001913
750.837200 0.020785
751.071700 0.013064
751.306100 0.018191
751.540600 -0.004536
751.775000 0.058490
752.009500 0.024875
752.244000 0.015345
752.478500 -0.005390
752.713000 0.001942
752.947500 -0.027944
753.182000 0.027587
753.416600 0.009411
753.651100 0.025518
753.885600 0.028812
754.120200 0.006916
754.354800 -0.008224
754.589400 -0.003654
754.823900 0.028895
755.058500 0.009946
755.293100 -0.003980
755.527800 0.014112
755.762400 0.007420
755.997000 0.011353
756.231700 0.001609
756.466300 0.002838
756.701000 0.010410
756.935600 -0.003555
757.170300 0.001773
757.405000 0.033660
757.639700 0.027178
757.874400 0.020932
758.109100 0.012694
758.343800 0.023354
758.578600 0.007471
758.813300 0.031075
759.048100 0.014903
759.282800 0.003875
759.517600 0.015298
759.752400 0.033578
759.987200 0.023807
760.222000 0.013940
760.456800 0.002560
760.691600 0.007573
760.926400 0.024574
761.161300 0.004443
761.396100 -0.001531
761.631000 0.013953
761.865800 0.007527
762.100700 -0.000276
762.335600 0.025515
762.570500 0.008964
762.805400 -0.000172
763.040300 0.000283
763.275200 0.003641
763.510100 0.003906
763.745000 0.006791
763.980000 0.035393
764.214900 -0.009722
764.449900 0.018493
764.684900 0.012050
764.919800 -0.010944
765.154800 0.005598
765.389800 0.025872
765.624800 0.011785
765.859900 -0.020828
766.094900 -0.002638
766.329900 0.008177
766.565000 0.004835
766.800000 -0.005818
767.035100 -0.006802
767.270100 0.028899
767.505200 0.003110
767.740300 0.025983
767.975400 0.002691
768.210500 0.010988
768.445600 -0.001591
768.680800 0.002582
768.915900 0.019412
769.151000 0.010709
769.386200 0.008959
769.621400 -0.013105
769.856500 0.035114
770.091700 0.011517
770.326900 -0.007867
770.562100 0.027438
770.797300 0.009034
771.032500 0.005709
771.267700 0.000856
771.503000 0.006906
771.738200 0.020077
771.973500 -0.017416
772.208700 0.003186
772.444000 0.034990
772.679300 -0.005205
772.914600 0.011699
773.149900 -0.002586
773.385200 -0.012542
773.620500 0.001683
773.855800 0.019457
774.091100 0.020899
774.326500 0.004559
774.561800 -0.006825
774.797200 0.034191
775.032600 0.033167
775.267900 -0.012864
775.503300 -0.000662
775.738700 0.030926
775.974100 0.003303
776.209500 -0.002890
776.445000 0.013150
776.680400 0.024565
776.915800 -0.034109
777.151300 0.023469
777.386800 0.043323
777.622200 -0.008415
777.857700 0.007535
778.093200 -0.003151
778.328700 0.016092
778.564200 -0.010214
778.799700 -0.000166
779.035200 0.030210
779.270700 -0.007563
779.506300 -0.003063
779.741800 0.008572
779.977400 0.010303
780.213000 -0.005923
780.448500 0.032384
780.684100 0.016674
780.919700 0.020839
781.155300 0.016746
781.390900 0.045566
781.626500 -0.000218
781.862200 0.020685
782.097800 0.015708
782.333500 -0.005791
782.569100 0.038655
782.804800 -0.006008
783.040500 -0.015465
783.276100 -0.030282
783.511800 0.010851
783.747500 0.007685
783.983200 0.010974
784.219000 0.015288
784.454700 -0.024303
784.690400 0.037416
784.926200 0.015168
785.161900 0.017824
785.397700 0.008153
785.633500 -0.005199
785.869200 0.051437
786.105000 0.007645
786.340800 0.014730
786.576600 -0.020103
786.812400 0.024568
787.048300 -0.023439
787.284100 0.046961
787.519900 -0.017113
787.755800 0.009070
787.991700 -0.006977
788.227500 -0.006310
788.463400 0.023010
788.699300 0.006774
788.935200 0.003027
789.171100 0.022077
789.407000 0.036598
789.642900 0.020838
789.878900 0.012425
790.114800 -0.015782
790.350700 -0.005222
790.586700 0.019222
790.822700 0.020162
791.058600 0.008488
791.294600 0.010120
791.530600 -0.010660
791.766600 0.013150
792.002600 0.045734
792.238700 -0.004289
792.474700 0.033284
792.710700 0.001301
792.946800 -0.005157
793.182800 -0.005803
793.418900 0.003760
793.655000 0.025797
793.891000 0.033947
794.127100 0.020491
794.363200 0.011758
794.599300 0.007104
794.835500 0.016560
795.071600 0.061563
795.307700 0.034687
795.543900 0.026262
795.780000 -0.024813
796.016200 0.007628
796.252300 0.007970
796.488500 0.003746
796.724700 0.030726
796.960900 0.017319
797.197100 -0.014329
797.433300 0.006186
797.669500 0.011437
797.905800 0.000425
798.142000 0.016674
798.378300 0.003259
798.614500 0.015133
798.850800 -0.004891
799.087100 0.013891
799.323300 0.012229
799.559600 0.018145
799.795900 0.012081
800.032200 0.036320
800.268600 -0.017544
800.504900 0.032259
800.741200 0.006593
800.977600 -0.011221
801.213900 -0.000758
801.450300 0.054461
801.686700 0.032873
801.923000 0.038682
802.159400 0.022596
802.395800 0.052776
802.632200 -0.007034
802.868600 0.032248
803.105100 0.048855
803.341500 -0.017794
803.577900 0.048306
803.814400 0.008663
804.050800 0.037786
804.287300 0.069932
804.523800 -0.026811
804.760300 0.017756
804.996800 -0.046425
805.233300 0.039666
805.469800 0.029450
805.706300 -0.018607
805.942800 -0.012479
806.179400 -0.007417
806.415900 0.025554
806.652500 0.028384
806.889000 0.022141
807.125600 0.023546
807.362200 -0.016076
807.598800 0.027097
807.835400 -0.023511
808.072000 0.009310
808.308600 0.044835
808.545200 0.003840
808.781800 -0.022211
809.018500 0.044030
809.255100 -0.007080
809.491800 -0.012155
809.728400 -0.002552
809.965100 -0.038071
810.201800 0.002888
810.438500 0.009313
810.675200 -0.026164
810.911900 -0.013940
811.148600 0.035712
811.385300 0.001393
811.622100 0.054046
811.858800 0.016235
812.095600 0.022498
812.332300 0.043555
812.569100 -0.069499
812.805900 0.043539
813.042700 0.025163
813.279500 0.091126
813.516300 -0.044559
813.753100 -0.008555
813.989900 0.007106
814.226700 0.066338
814.463600 -0.017292
814.700400 -0.004990
814.937300 0.025985
815.174200 0.049764
815.411000 -0.020065
815.647900 -0.047194
815.884800 0.028228
816.121700 0.010814
816.358600 0.033417
816.595500 0.018626
816.832400 0.007122
817.069400 -0.031362
817.306300 0.059920
817.543300 0.024754
817.780200 0.005281
818.017200 0.027783
818.254200 0.018866
818.491200 -0.027290
818.728200 0.077526
818.965200 0.001115
819.202200 0.066817
819.439200 0.017528
819.676200 0.004238
819.913300 -0.006922
820.150300 -0.017355
820.387400 0.039794
820.624400 0.039484
820.861500 -0.003357
821.098600 0.009319
821.335700 0.056041
821.572700 0.055377
821.809900 -0.035326
822.047000 0.068520
822.284100 -0.034413
822.521200 0.036542
822.758400 0.009988
822.995500 0.064769
823.232700 0.053831
823.469800 0.054894
823.707000 0.003999
823.944200 0.000570
824.181400 0.063636
824.418600 0.037661
824.655800 -0.080721
824.893000 -0.014130
825.130200 -0.021362
825.367500 0.054495
825.604700 0.034216
825.841900 0.016358
826.079200 0.023953
826.316500 0.050581
826.553700 -0.004572
826.791000 0.059840
827.028300 0.018643
827.265600 0.065550
827.502900 0.032248
827.740200 0.045814
827.977600 0.003297
828.214900 -0.011938
828.452200 -0.002722
828.689600 0.031795
828.927000 0.002942
829.164300 -0.006261
829.401700 -0.005800
829.639100 0.020896
829.876500 -0.028415
830.113900 0.023883
830.351300 0.066688
830.588700 -0.034034
830.826100 -0.022979
831.063600 0.013696
831.301000 0.097409
831.538500 -0.006959
831.775900 0.104825
832.013400 0.005097
832.250900 0.070866
832.488400 0.163956
832.725900 0.107944
832.963400 0.010955
833.200900 0.091032
833.438400 -0.059274
833.675900 0.091862
833.913500 -0.007967
834.151000 0.098900
834.388600 0.076603
834.626100 0.000201
834.863700 0.083623
835.101300 0.029677
835.338900 0.061338
835.576500 -0.051876
835.814100 0.029381
836.051700 -0.019969
836.289300 0.101392
836.526900 -0.029079
836.764600 0.059074
837.002200 0.098460
837.239900 0.037589
837.477500 0.054797
837.715200 -0.009532
837.952900 0.096423
838.190600 0.008193
838.428300 -0.107017
838.666000 0.049637
838.903700 -0.020246
839.141400 -0.033339
839.379100 0.007651
839.616900 -0.073411
839.854600 0.033387
840.092400 -0.040432
840.330200 0.073580
840.567900 0.015657
840.805700 0.000425
841.043500 0.137391
841.281300 -0.033614
841.519100 0.110728
841.756900 -0.016782
841.994700 -0.046449
842.232600 0.081753
842.470400 0.019443
842.708200 0.151501
842.946100 -0.099815
843.184000 -0.162859
843.421800 -0.024191
843.659700 0.009854
843.897600 -0.027568
844.135500 0.152590
844.373400 0.073963
844.611300 0.004719
844.849200 0.108512
845.087200 0.124867
845.325100 0.115112
845.563100 -0.022771
845.801000 0.047656
846.039000 0.127547
846.277000 0.049759
846.514900 0.013927
846.752900 -0.042168
846.990900 -0.010833
847.228900 -0.075195
847.466900 0.186468
847.705000 0.042936
847.943000 -0.079137
848.181000 0.074115
848.419100 0.028902
848.657100 0.185384
848.895200 0.019204
849.133300 0.102260
849.371300 0.067716
849.609400 0.020260
849.847500 0.098108
850.085600 -0.021769
850.323700 0.163938
850.561900 0.092447
850.800000 -0.048599
851.038100 -0.040008
851.276300 0.110051
851.514400 -0.027489
851.752600 0.089232
851.990800 0.081345
852.228900 0.035337
852.467100 0.014767
852.705300 0.030513
852.943500 0.054332
853.181700 0.057194
853.420000 -0.023120
853.658200 -0.021410
853.896400 0.054471
854.134700 -0.021721
854.372900 -0.000245
854.611200 0.047493
854.849500 0.085216
855.087700 0.025546
855.326000 0.103213
855.564300 -0.000563
855.802600 0.025989
856.040900 0.007206
856.279200 0.047925
856.517600 0.059607
856.755900 0.028624
856.994200 -0.043891
857.232600 -0.003391
857.471000 -0.041802
857.709300 0.086023
857.947700 -0.013368
858.186100 0.038115
858.424500 -0.072969
858.662900 0.035696
858.901300 0.052894
859.139700 0.005770
859.378100 -0.036220
859.616600 0.025705
859.855000 -0.071209
860.093500 -0.016890
860.331900 0.013767
860.570400 0.080817
860.808900 0.014361
861.047300 0.070900
861.285800 -0.016950
861.524300 0.062065
861.762800 0.046639
862.001300 0.068587
862.239900 0.101032
862.478400 0.110456
862.716900 -0.038085
862.955500 0.047568
863.194000 -0.082500
863.432600 0.010891
863.671200 0.077998
863.909800 0.026074
864.148300 -0.052486
864.386900 0.020234
864.625500 0.073795
864.864200 0.152768
865.102800 -0.122674
865.341400 -0.015296
865.580000 -0.055294
865.818700 0.055774
866.057300 0.101595
866.296000 0.186729
866.534700 0.087434
866.773300 0.110746
867.012000 -0.008232
867.250700 0.052146
867.489400 -0.029632
867.728100 -0.017566
867.966900 0.124877
868.205600 0.061449
868.444300 0.034714
868.683100 -0.024418
868.921800 0.013524
869.160600 -0.004735
869.399300 -0.017276
869.638100 0.031122
869.876900 0.063777
870.115700 0.140359
870.354500 -0.108302
870.593300 -0.010637
870.832100 0.062106
871.070900 0.039369
871.309700 0.090841
871.548600 0.027676
871.787400 0.011923
872.026300 -0.102891
872.265100 0.025075
872.504000 0.000982
872.742900 0.080402
872.981800 -0.107191
873.220700 -0.007242
873.459600 0.196931
873.698500 -0.011503
873.937400 -0.026320
874.176300 0.069376
874.415300 0.019712
874.654200 0.058565
874.893200 -0.081587
875.132100 -0.087104
875.371100 0.085995
875.610100 -0.010467
875.849100 0.135274
876.088000 0.036612
876.327000 0.005856
876.566100 -0.018528
876.805100 0.120482
877.044100 0.047958
877.283100 -0.098939
877.522200 -0.046743
877.761200 0.001416
878.000300 0.240944
878.239300 0.138756
878.478400 0.006375
878.717500 0.118341
878.956600 0.152182
879.195700 0.018912
879.434800 -0.121844
879.673900 -0.030133
879.913000 0.067427
880.152100 0.104226
880.391300 0.011616
880.630400 0.056601
880.869600 0.045945
881.108700 0.017768
881.347900 0.055154
881.587100 0.018899
881.826200 0.020209
882.065400 0.021709
882.304600 -0.065982
882.543800 0.108771
882.783100 0.076514
883.022300 0.040293
883.261500 0.044720
883.500700 0.027452
883.740000 -0.068886
883.979200 0.008495
884.218500 -0.077383
884.457800 -0.054678
884.697100 -0.189366
884.936300 0.073813
885.175600 0.056478
885.414900 0.122835
885.654200 0.072834
885.893600 0.073252
886.132900 0.068084
886.372200 0.062524
886.611600 -0.102838
886.850900 0.045133
887.090300 0.098330
887.329600 0.015985
887.569000 0.070815
887.808400 0.082010
888.047800 -0.059898
888.287200 -0.001671
888.526600 -0.008830
888.766000 -0.109241
889.005400 0.146160
889.244800 0.200391
889.484300 0.035075
889.723700 0.126293
889.963200 0.107245
890.202600 -0.066873
890.442100 0.052423
890.681600 -0.040453
890.921100 0.134640
891.160600 0.129438
891.400100 0.126073
891.639600 0.195499
891.879100 0.024747
892.118600 -0.046344
892.358100 0.116556
892.597700 -0.001568
892.837200 -0.018546
893.076800 0.075469
893.316300 0.222366
893.555900 0.027607
893.795500 0.101824
894.035100 0.044148
894.274700 0.056474
894.514300 0.026079
894.753900 -0.079015
894.993500 0.065503
895.233100 -0.140375
895.472700 0.066028
895.712400 0.098223
895.952000 0.077217
896.191700 0.056973
896.431400 -0.015864
896.671000 0.103558
896.910700 0.009290
897.150400 0.048490
897.390100 0.030700
897.629800 0.021943
897.869500 0.070558
898.109200 0.131615
898.348900 0.242531
898.588700 -0.009602
898.828400 -0.048221
899.068200 0.069376
899.307900 0.092006
899.547700 0.011710
899.787500 0.074758
900.027200 -0.107109
900.267000 0.088543
900.506800 -0.011604
900.746600 0.051401
900.986400 0.041042
901.226300 0.128615
901.466100 0.058626
901.705900 0.155374
901.945800 0.285567
902.185600 0.087244
902.425500 -0.027489
902.665400 -0.033150
902.905200 0.168723
903.145100 0.090112
903.385000 -0.050110
903.624900 0.050463
903.864800 -0.047667
904.104700 0.056378
904.344600 0.028446
904.584600 -0.065599
904.824500 -0.039097
905.064400 0.136724
905.304400 -0.013302
905.544400 -0.006721
905.784300 0.194431
906.024300 0.090688
906.264300 0.012823
906.504300 -0.042964
906.744300 -0.016770
906.984300 0.070569
907.224300 0.117297
907.464300 -0.048599
907.704300 -0.126916
907.944400 -0.025524
908.184400 0.153028
908.424500 0.241530
908.664500 -0.135832
908.904600 -0.147215
909.144700 0.124615
909.384700 0.248922
909.624800 0.244759
909.864900 -0.022646
910.105000 0.161462
910.345200 -0.088510
910.585300 0.127235
910.825400 0.137414
911.065500 0.121068
911.305700 0.165289
911.545800 0.009767
911.786000 0.074021
912.026200 -0.100654
912.266300 0.137022
912.506500 0.112044
912.746700 0.139371
912.986900 0.005978
913.227100 -0.073437
913.467300 -0.080891
913.707500 -0.170303
913.947800 0.187650
914.188000 0.200974
914.428300 0.105725
914.668500 -0.040438
914.908800 0.121661
915.149000 -0.030041
915.389300 -0.002216
915.629600 0.242480
915.869900 0.033298
916.110200 -0.023209
916.350500 0.068023
916.590800 0.113591
916.831100 0.493500
917.071400 0.015380
917.311800 0.082594
917.552100 0.065740
917.792500 -0.080151
918.032800 0.013677
918.273200 0.216389
918.513600 0.277618
918.753900 0.163033
918.994300 0.311364
919.234700 0.194642
919.475100 0.029332
919.715500 -0.030590
919.956000 0.298133
920.196400 -0.141664
920.436800 0.067624
920.677300 -0.135026
920.917700 0.465699
921.158200 0.187381
921.398600 0.231398
921.639100 0.118933
921.879600 -0.230135
922.120100 -0.012936
922.360600 0.014222
922.601100 -0.012709
922.841600 0.095895
923.082100 0.292408
923.322600 0.052879
923.563100 0.036185
923.803700 0.723448
924.044200 0.091417
924.284800 -0.012557
924.525400 0.084123
924.765900 0.233166
925.006500 -0.033399
925.247100 -0.154345
925.487700 0.022090
925.728300 0.051671
925.968900 0.157811
926.209500 -0.056721
926.450100 -0.085608
926.690800 0.259699
926.931400 -0.059921
927.172000 0.117264
927.412700 0.092232
927.653300 0.096554
927.894000 0.096316
928.134700 0.642051
928.375400 0.227762
928.616100 0.021603
928.856800 0.142697
929.097500 -0.025617
929.338200 -0.185637
929.578900 0.232004
929.819600 0.026959
930.060400 0.071678
930.301100 -0.009029
930.541900 0.299112
930.782600 0.347888
931.023400 0.023729
931.264200 0.187219
931.504900 0.148434
931.745700 0.190307
931.986500 0.006034
932.227300 0.036796
932.468100 0.302209
932.708900 0.061562
932.949800 -0.055048
933.190600 0.269246
933.431400 0.266142
933.672300 0.364211
933.913100 0.014300
934.154000 0.204610
934.394900 -0.031376
934.635800 -0.272820
934.876600 0.120042
935.117500 -0.119819
935.358400 0.072869
935.599300 0.238811
935.840300 0.145149
936.081200 -0.011051
936.322100 -0.086510
936.563000 0.492862
936.804000 0.228025
937.044900 -0.376628
937.285900 0.632944
937.526900 0.036448
937.767800 0.350746
938.008800 0.548170
938.249800 0.271967
938.490800 0.211796
938.731800 0.262322
938.972800 0.628729
939.213800 -0.061319
939.454900 0.241723
939.695900 0.279456
939.936900 3.359076
940.178000 0.014504
940.419000 0.445371
940.660100 0.613302
940.901200 0.209146
941.142200 0.308509
941.383300 0.026571
941.624400 0.428012
941.865500 0.005784
942.106600 0.582917
942.347700 -0.072113
942.588900 -0.031126
942.830000 0.167491
943.071100 0.165320
943.312300 0.616323
943.553400 0.407848
943.794600 -0.061276
944.035700 0.277999
944.276900 0.087792
944.518100 3.111934
944.759300 0.158137
945.000500 0.222064
945.241700 1.533635
945.482900 3.272770
945.724100 0.130875
945.965300 0.030893
946.206600 0.633659
946.447800 1.419881
946.689100 -0.086902
946.930300 -0.675798
947.171600 0.527844
947.412800 0.121828
947.654100 0.152843
947.895400 0.134551
948.136700 0.203626
948.378000 2.902547
948.619300 0.269806
948.860600 0.896074
949.101900 0.069829
949.343300 -0.215531
949.584600 0.032955
949.825900 3.104828
950.067300 0.324295
950.308600 -0.089689
950.550000 3.250176
950.791400 -0.347549
951.032700 -0.505295
951.274100 0.054152
951.515500 0.181921
951.756900 0.080980
951.998300 -0.043677
952.239800 0.041898
952.481200 -0.054514
952.722600 -0.188164
952.964000 0.536552
953.205500 -0.050816
953.446900 0.552764
953.688400 -0.025263
953.929900 0.165426
954.171300 -0.557528
954.412800 -0.021666
954.654300 0.219876
954.895800 -0.280525
955.137300 -0.076348
955.378800 0.114548
955.620300 0.455617
955.861800 -0.018776
956.103400 -0.130273
956.344900 -0.082100
956.586500 0.177318
956.828000 0.538971
957.069600 1.037687
957.311100 -0.125230
957.552700 0.392488
957.794300 0.691064
958.035900 -0.118935
958.277500 -0.343539
958.519100 -0.172391
958.760700 0.119582
959.002300 -0.590259
959.243900 -0.183377
959.485600 0.984056
959.727200 3.149219
959.968800 2.918555
960.210500 0.091128
960.452200 0.023829
960.693800 1.106165
960.935500 -2.440909
961.177200 0.150731
961.418900 -0.295689
961.660600 -0.115183
961.902300 3.174641
962.144000 0.232112
962.385700 -0.396675
962.627400 0.312504
962.869200 -0.431732
963.110900 3.003891
963.352700 2.840106
963.594400 0.982377
963.836200 2.999565
964.077900 -0.165245
964.319700 3.145818
964.561500 0.024709
964.803300 3.139249
965.045100 -0.164629
965.286900 2.791691
965.528700 -0.345130
965.770500 -0.353189
966.012300 -0.230297
966.254200 -0.249702
966.496000 2.663701
966.737900 0.075528
966.979700 1.396870
967.221600 0.505405
967.463400 1.376577
967.705300 0.034686
967.947200 -0.478120
968.189100 -0.246851
968.431000 -0.035122
968.672900 3.067443
968.914800 -0.285985
969.156700 -0.012321
969.398700 -0.199688
969.640600 -0.161028
969.882500 0.047999
970.124500 2.575188
970.366400 0.091912
970.608400 3.042969
970.850400 0.178638
971.092300 -0.240877
971.334300 -0.090648
971.576300 -0.107927
971.818300 0.095044
972.060300 -0.075029
972.302300 3.275081
972.544300 0.461774
972.786400 0.215064
973.028400 3.206826
973.270400 1.845098
973.512500 3.082426
973.754500 3.218010
973.996600 1.060258
974.238700 0.155562
974.480700 1.491970
974.722800 0.888133
974.964900 -0.213613
975.207000 0.546987
975.449100 2.338456
975.691200 0.005493
975.933300 0.166169
976.175500 -2.893762
976.417600 0.722773
976.659700 0.076319
976.901900 1.378150
977.144000 0.054581
977.386200 2.745075
977.628300 0.495429
977.870500 1.495797
978.112700 -0.247784
978.354900 -0.457529
978.597100 -0.175172
978.839300 3.206826
979.081500 0.057611
979.323700 -3.033021
979.565900 2.663701
979.808200 0.577761
980.050400 0.101838
980.292600 0.070581
980.534900 3.012837
980.777100 0.002326
981.019400 -0.464404
981.261700 0.698697
981.504000 0.224384
981.746200 1.845098
981.988500 3.013259
982.230800 -0.143401
982.473100 0.335235
982.715500 0.511292
982.957800 2.799341
983.200100 0.385034
983.442400 -0.470327
983.684800 0.430125
983.927100 -0.240877
984.169500 0.427919
984.411800 0.254187
984.654200 2.760422
984.896600 -0.302821
985.139000 -1.907538
985.381400 3.229170
985.623800 0.279991
985.866200 0.157702
986.108600 -2.582063
986.351000 2.788875
986.593400 2.820201
986.835800 -0.021353
987.078300 2.682145
987.320700 -0.065950
987.563200 2.700704
987.805600 -0.478788
988.048100 1.159826
988.290600 -0.198619
988.533100 0.000000
988.775600 -0.130132
989.018000 3.115278
989.260500 1.273446
989.503100 0.000000
989.745600 -0.972363
989.988100 -1.643453
990.230600 -0.019998
990.473200 0.308141
990.715700 3.257679
990.958200 2.523746
991.200800 0.715691
991.443400 0.000000
991.685900 -0.447642
991.928500 -2.557507
992.171100 -1.090836
992.413700 3.125806
992.656300 0.317190
992.898900 -0.038969
993.141500 1.143958
993.384100 0.116347
993.626700 0.028192
993.869400 2.760422
994.112000 -0.209180
994.354700 -0.057472
994.597300 3.030195
994.840000 -2.893762
995.082600 2.480007
995.325300 -0.378847
995.568000 2.884795
995.810700 2.127105
996.053400 2.866287
996.296100 0.797985
996.538800 0.064332
996.781500 0.483612
997.024200 -1.184286
997.267000 -0.196422
997.509700 3.186674
997.752400 -0.454078
997.995200 0.026667
998.237900 2.701568
998.480700 0.483881
998.723500 0.000000
998.966200 -0.031944
999.209000 0.000000
999.451800 0.087437
999.694600 3.025715
999.937400 2.318063
1000.180200 0.381805
1000.423000 3.101403
1000.665900 -0.165403
1000.908700 2.396199
1001.151500 2.727541
1001.394400 0.416695
1001.637200 3.078457
1001.880100 0.778151
1002.123000 -0.157280
1002.365800 -0.588483
1002.608700 -0.524020
1002.851600 2.913284
1003.094500 0.554881
1003.337400 -0.110896
1003.580300 0.000000
1003.823200 -0.087454
1004.066100 0.188565
1004.309100 2.719331
1004.552000 0.602060
1004.794900 -0.111469
1005.037900 3.129368
1005.280800 2.806180
1005.523800 -0.010682
1005.766700 2.783904
1006.009700 -0.077229
1006.252700 0.000000
1006.495700 -0.114457
1006.738700 0.000000
1006.981700 0.333312
1007.224700 2.653213
1007.467700 -0.020784
1007.710700 0.434569
1007.953800 3.146128
1008.196800 0.263640
1008.439800 0.613283
1008.682900 2.691965
1008.925900 3.097604
1009.169000 2.884229
1009.412100 -1.361728
1009.655100 2.008600
1009.898200 3.108227
1010.141300 2.432969
1010.384400 -0.060514
1010.627500 -0.408813
1010.870600 0.020670
1011.113700 0.554881
1011.356800 0.003298
1011.600000 -1.450328
1011.843100 -0.096793
1012.086300 -2.107210
1012.329400 0.076823
1012.572600 -3.194237
1012.815700 0.115518
1013.058900 0.000000
1013.302100 3.003891
1013.545200 1.026448
1013.788400 0.350831
1014.031600 -2.724276
1014.274800 0.350906
1014.518000 0.630488
1014.761300 0.736627
1015.004500 -0.301030
1015.247700 -0.117150
1015.490900 -1.934498
1015.734200 0.166448
1015.977400 -0.107258
1016.220700 -3.006466
1016.464000 1.209637
1016.707200 2.190332
1016.950500 2.378398
1017.193800 -0.173039
1017.437100 2.562293
1017.680400 2.985426
1017.923700 0.418384
1018.167000 3.231724
1018.410300 2.643453
1018.653600 -0.143852
1018.896900 3.021603
1019.140300 3.030195
1019.383600 0.160331
1019.627000 -0.018098
1019.870300 2.465383
1020.113700 0.278298
1020.357100 0.134279
1020.600400 0.746488
1020.843800 0.185002
1021.087200 0.484356
1021.330600 0.000000
1021.574000 3.070776
1021.817400 -2.668386
1022.060800 -2.406540
1022.304200 0.000000
1022.547700 2.902003
1022.791100 2.432969
1023.034500 0.106196
