# Wavelength	Absorbance
197.780200 -0.191516
197.984200 2.907949
198.188200 3.093772
198.392200 0.472630
198.596300 -0.421092
198.800300 -0.072872
199.004400 0.152142
199.208500 0.099874
199.412600 -0.443668
199.616800 2.768638
199.820900 -0.233587
200.025100 0.728728
200.229200 0.072958
200.433400 3.008600
200.637600 0.482624
200.841800 0.752784
201.046100 3.008600
201.250300 3.142702
201.454600 0.266167
201.658900 0.005048
201.863100 0.020245
202.067400 2.760422
202.271800 1.014591
202.476100 2.896526
202.680500 -0.287242
202.884800 0.281488
203.089200 3.034628
203.293600 2.745075
203.498000 2.913284
203.702400 2.336460
203.906900 -0.036594
204.111300 -2.659916
204.315800 0.029384
204.520300 3.062958
204.724800 2.587711
204.929300 2.396199
205.133800 0.047667
205.338400 -0.005225
205.543000 1.627366
205.747500 -0.084268
205.952100 0.057691
206.156700 3.034628
206.361400 -2.851870
206.566000 2.187521
206.770600 3.168203
206.975300 2.294466
207.180000 -1.951476
207.384700 0.592076
207.589400 -2.964731
207.794100 -0.681361
207.998900 2.622214
208.203600 3.152288
208.408400 -0.150748
208.613200 2.820201
208.818000 0.233093
209.022800 -0.539751
209.227600 -0.321562
209.432500 2.907949
209.637300 -0.354733
209.842200 -0.798605
210.047100 0.407716
210.252000 -0.299104
210.456900 3.086360
210.661800 3.055378
210.866800 0.895313
211.071800 0.293583
211.276700 2.907949
211.481700 -0.140398
211.686700 2.632457
211.891800 0.400826
212.096800 0.569847
212.301800 2.890421
212.506900 0.321042
212.712000 2.965672
212.917100 1.147161
213.122200 2.866287
213.327300 3.220892
213.532500 -2.209515
213.737600 -0.188342
213.942800 -1.738667
214.148000 -0.371154
214.353200 -2.149219
214.558400 0.159594
214.763600 3.265290
214.968900 1.148338
215.174100 3.104487
215.379400 -3.277151
215.584700 2.846955
215.790000 -0.085946
215.995300 2.820201
216.200700 -0.138303
216.406000 0.283955
216.611400 2.587711
216.816800 2.833784
217.022200 -0.018310
217.227600 0.016322
217.433000 -0.213950
217.638400 3.047275
217.843900 2.700704
218.049400 0.000000
218.254800 3.275081
218.460300 -0.126532
218.665900 0.526758
218.871400 0.188412
219.076900 1.103848
219.282500 2.960946
219.488100 0.113282
219.693600 2.783904
219.899200 0.485886
220.104900 -0.037693
220.310500 2.158362
220.516100 0.000000
220.721800 0.876521
220.927500 0.137152
221.133200 2.902003
221.338900 0.382175
221.544600 -0.137122
221.750300 3.183555
221.956100 0.697896
222.161800 2.338456
222.367600 0.102380
222.573400 -0.402652
222.779200 -3.167613
222.985000 0.000000
223.190900 -0.174280
223.396700 -0.372260
223.602600 2.632457
223.808500 -0.455334
224.014400 -0.023097
224.220300 2.935507
224.426200 2.719331
224.632200 1.183473
224.838100 -0.237978
225.044100 2.653213
225.250100 -0.424283
225.456100 -0.703387
225.662100 0.060748
225.868100 0.047924
226.074200 2.632457
226.280200 -1.748188
226.486300 2.846955
226.692400 0.000000
226.898500 3.101403
227.104600 0.032015
227.310700 0.565392
227.516900 2.833784
227.723000 2.089905
227.929200 0.400983
228.135400 0.174449
228.341600 -0.174360
228.547800 0.311652
228.754100 3.003891
228.960300 -0.643228
229.166600 -2.964731
229.372900 -0.253419
229.579100 1.536919
229.785500 2.791691
229.991800 -1.646264
230.198100 -0.338630
230.404500 -0.753050
230.610800 0.237478
230.817200 0.000000
231.023600 -0.414930
231.230000 2.683047
231.436400 3.152288
231.642900 2.718502
231.849300 0.796055
232.055800 -0.757813
232.262300 3.280123
232.468800 -1.061734
232.675300 -0.210122
232.881800 -0.099087
233.088400 0.011076
233.294900 -0.433849
233.501500 0.475492
233.708100 0.000000
233.914700 -0.520252
234.121300 -2.876795
234.327900 0.697520
234.534600 2.682145
234.741300 -0.057428
234.947900 2.736397
235.154600 0.859657
235.361300 -0.057295
235.568000 3.022016
235.774800 2.662758
235.981500 2.562293
236.188300 -2.944483
236.395100 0.850346
236.601800 -2.716838
236.808700 0.072205
237.015500 0.751906
237.222300 -0.148900
237.429200 0.187558
237.636000 3.042969
237.842900 1.851258
238.049800 0.608924
238.256700 0.013726
238.463600 3.063333
238.670600 2.970812
238.877500 0.566470
239.084500 0.000000
239.291500 3.226342
239.498500 2.245513
239.705500 -0.208417
239.912500 1.845098
240.119500 -1.541019
240.326600 -0.635094
240.533700 -2.876795
240.740700 2.621176
240.947800 0.208583
241.154900 0.207315
241.362100 0.468740
241.569200 2.632457
241.776400 2.999131
241.983500 2.783904
242.190700 3.206826
242.397900 0.000000
242.605100 2.537819
242.812400 2.587711
243.019600 0.890110
243.226900 2.710117
243.434100 -0.031199
243.641400 2.736397
243.848700 3.012837
244.056000 -2.993436
244.263400 0.905024
244.470700 0.044961
244.678100 3.082426
244.885400 0.484571
245.092800 2.682145
245.300200 -0.033000
245.507600 0.188244
245.715100 3.034628
245.922500 3.026125
246.130000 -1.196062
246.337500 0.692193
246.544900 -0.400375
246.752400 3.362859
246.960000 0.525758
247.167500 0.303683
247.375000 -2.733999
247.582600 0.014145
247.790200 1.845098
247.997800 0.386229
248.205400 0.910743
248.413000 1.124551
248.620600 2.727541
248.828300 0.090374
249.035900 3.030600
249.243600 3.093772
249.451300 0.642909
249.659000 0.146463
249.866700 0.451365
250.074500 0.706514
250.282200 0.255497
250.490000 0.087610
250.697800 0.080542
250.905600 -0.464476
251.113400 2.929930
251.321200 2.736397
251.529000 2.008600
251.736900 3.177536
251.944700 -0.136372
252.152600 0.478685
252.360500 0.447666
252.568400 0.023271
252.776300 0.511449
252.984300 -0.062728
253.192200 1.237238
253.400200 -0.127203
253.608200 2.599883
253.816200 -0.090148
254.024200 2.872739
254.232200 -0.569104
254.440200 0.000000
254.648300 -0.056049
254.856400 -0.232425
255.064400 2.775974
255.272500 0.059780
255.480600 0.240317
255.688800 0.000000
255.896900 3.030195
256.105100 3.284882
256.313200 -0.058088
256.521400 2.827369
256.729600 3.025715
256.937800 0.680072
257.146000 0.105429
257.354300 0.000000
257.562500 0.292430
257.770800 0.000000
257.979100 0.413591
258.187400 -0.287775
258.395700 1.334597
258.604000 3.034628
258.812400 -0.278478
259.020700 3.026125
259.229100 -0.020839
259.437500 0.336405
259.645900 0.518047
259.854300 -0.256611
260.062700 3.125481
260.271100 -0.255619
260.479600 -0.189077
260.688100 0.483112
260.896500 1.504665
261.105000 -0.609065
261.313500 2.621176
261.522100 0.021142
261.730600 0.866779
261.939200 2.701568
262.147700 0.178990
262.356300 -0.541606
262.564900 2.536558
262.773500 -0.419948
262.982200 0.431969
263.190800 -3.155032
263.399500 0.039213
263.608100 3.039017
263.816800 -0.139140
264.025500 2.396199
264.234200 2.158362
264.442900 2.053078
264.651700 -0.198622
264.860400 2.662758
265.069200 3.051153
265.278000 0.529441
265.486800 -0.376677
265.695600 2.450249
265.904400 -0.023660
266.113300 0.208948
266.322100 0.467837
266.531000 -0.502108
266.739900 -0.860566
266.948800 0.486320
267.157700 0.675280
267.366600 0.906159
267.575500 -0.355692
267.784500 0.003686
267.993500 0.503395
268.202400 1.084321
268.411400 -0.007781
268.620500 0.551661
268.829500 -0.403865
269.038500 -0.422691
269.247600 0.617921
269.456600 2.008600
269.665700 1.421604
269.874800 2.907411
270.083900 0.828761
270.293100 -3.029384
270.502200 0.069898
270.711400 2.127105
270.920500 0.134814
271.129700 2.985426
271.338900 0.086227
271.548100 2.691965
271.757300 3.030195
271.966600 2.890421
272.175800 1.198428
272.385100 0.086475
272.594400 0.310895
272.803700 -0.032627
273.013000 -0.039509
273.222300 2.994757
273.431600 -0.014595
273.641000 1.323292
273.850400 -0.253157
274.059700 2.945961
274.269100 3.209515
274.478500 -0.389394
274.688000 0.417142
274.897400 2.866287
275.106900 1.591065
275.316300 0.034603
275.525800 3.067071
275.735300 -2.390935
275.944800 2.965672
276.154300 -0.339840
276.363900 1.468769
276.573400 2.840106
276.783000 -0.195696
276.992600 0.420444
277.202200 1.160784
277.411800 2.587711
277.621400 0.266643
277.831000 0.293169
278.040700 3.177536
278.250300 0.300373
278.460000 0.474609
278.669700 0.628275
278.879400 -0.728399
279.089100 2.691965
279.298900 2.929930
279.508600 -0.205499
279.718400 3.272770
279.928100 -1.886491
280.137900 -0.075996
280.347700 0.422942
280.557600 2.960946
280.767400 0.612506
280.977200 0.481221
281.187100 -2.262451
281.397000 3.089905
281.606900 -2.851870
281.816800 0.240598
282.026700 -0.260113
282.236600 2.935003
282.446600 0.047484
282.656500 -2.149219
282.866500 -0.182821
283.076500 -0.654980
283.286500 0.623916
283.496500 0.510772
283.706500 2.907411
283.916600 -0.145283
284.126600 -2.209132
284.336700 -0.119506
284.546800 -0.567321
284.756900 0.041638
284.967000 2.896526
285.177100 0.833454
285.387300 0.000000
285.597400 -0.118099
285.807600 -1.014658
286.017800 1.215064
286.228000 -3.054230
286.438200 0.491098
286.648400 -0.003966
286.858700 1.721222
287.068900 0.269061
287.279200 -0.173820
287.489500 2.414973
287.699800 0.499049
287.910100 0.411661
288.120400 0.135585
288.330800 2.220108
288.541100 0.476159
288.751500 -0.775952
288.961900 2.813581
289.172300 0.000000
289.382700 0.235967
289.593100 -0.098287
289.803500 0.000000
290.014000 0.128588
290.224500 0.539357
290.434900 0.000000
290.645400 -0.092891
290.855900 -0.258478
291.066500 0.010995
291.277000 0.481842
291.487500 0.506187
291.698100 0.619419
291.908700 -0.486970
292.119300 3.059185
292.329900 0.120244
292.540500 0.029384
292.751100 2.956168
292.961800 -1.544068
293.172400 0.680072
293.383100 -2.922725
293.593800 0.376709
293.804500 0.104609
294.015200 -0.228789
294.226000 0.000000
294.436700 0.720159
294.647500 2.866287
294.858200 0.554988
295.069000 3.055378
295.279800 0.345461
295.490600 0.000000
295.701500 0.292772
295.912300 3.082785
296.123200 0.608241
296.334000 2.719331
296.544900 0.964626
296.755800 3.220892
296.966700 -0.197882
297.177700 0.866779
297.388600 -0.425590
297.599500 -0.607282
297.810500 0.125527
298.021500 -0.005813
298.232500 0.048091
298.443500 -0.881513
298.654500 0.338687
298.865600 3.125806
299.076600 2.622214
299.287700 0.000000
299.498800 0.108053
299.709900 2.902003
299.921000 0.112957
300.132100 0.199771
300.343200 0.305715
300.554400 0.308479
300.765500 0.136860
300.976700 -3.070038
301.187900 0.120410
301.399100 0.422646
301.610300 0.206642
301.821500 3.364739
302.032800 3.104487
302.244100 -0.020374
302.455300 0.380767
302.666600 3.063333
302.877900 0.509504
303.089200 -0.704271
303.300600 0.663240
303.511900 0.450984
303.723300 0.306231
303.934600 2.884795
304.146000 -2.166472
304.357400 -0.185079
304.568800 -0.182428
304.780300 0.146184
304.991700 0.358106
305.203100 -0.323655
305.414600 0.988867
305.626100 2.294466
305.837600 0.146894
306.049100 -0.005781
306.260600 -0.077247
306.472200 2.245513
306.683700 0.593778
306.895300 2.575188
307.106900 0.354929
307.318400 0.100635
307.530100 0.127420
307.741700 0.810545
307.953300 3.332236
308.165000 0.000000
308.376600 1.517102
308.588300 0.390423
308.800000 0.122537
309.011700 0.376259
309.223400 -0.131632
309.435100 2.450249
309.646900 2.840106
309.858600 3.054996
310.070400 0.164314
310.282200 -1.192328
310.494000 0.232900
310.705800 0.000590
310.917600 -0.167569
311.129500 2.840106
311.341300 0.258621
311.553200 3.180413
311.765100 0.205256
311.977000 3.142702
312.188900 3.122544
312.400800 0.001216
312.612700 3.012837
312.824700 0.327304
313.036600 -0.098473
313.248600 1.336399
313.460600 -0.186260
313.672600 0.341088
313.884600 -0.111196
314.096700 2.599883
314.308700 0.511231
314.520800 0.323073
314.732800 0.502410
314.944900 3.146128
315.157000 0.292821
315.369200 0.383815
315.581300 -0.103040
315.793400 0.443697
316.005600 3.226342
316.217700 0.279462
316.429900 3.525174
316.642100 3.168203
316.854300 0.149289
317.066600 3.463445
317.278800 0.225409
317.491100 1.113107
317.703300 0.391777
317.915600 3.296446
318.127900 0.069365
318.340200 3.097604
318.552500 0.332547
318.764900 3.139249
318.977200 3.437592
319.189600 -0.055453
319.401900 0.159917
319.614300 0.818508
319.826700 0.030921
320.039200 0.173061
320.251600 0.225681
320.464000 0.435892
320.676500 0.262692
320.889000 -0.468610
321.101400 1.039259
321.313900 0.611298
321.526500 0.664930
321.739000 3.376577
321.951500 3.472903
322.164100 0.209854
322.376600 0.457849
322.589200 0.871498
322.801800 0.136037
323.014400 3.360972
323.227000 0.893979
323.439700 0.917605
323.652300 0.363743
323.865000 0.463058
324.077700 0.537333
324.290400 0.763726
324.503100 3.378580
324.715800 3.399154
324.928500 2.279569
325.141200 3.384174
325.354000 3.583765
325.566800 3.389875
325.779600 3.531990
325.992400 0.312112
326.205200 0.333330
326.418000 0.757524
326.630800 3.581495
326.843700 3.659250
327.056600 0.653573
327.269400 1.107343
327.482300 3.531990
327.695200 3.385964
327.908200 0.408024
328.121100 3.453930
328.334000 0.560689
328.547000 0.937718
328.760000 0.663851
328.973000 3.578983
329.186000 3.564311
329.399000 0.746945
329.612000 0.815302
329.825100 0.415115
330.038100 0.895047
330.251200 0.933385
330.464300 0.612193
330.677400 3.635484
330.890500 1.744016
331.103600 3.526469
331.316700 3.641970
331.529900 3.658298
331.743100 3.583879
331.956200 0.962369
332.169400 0.325469
332.382600 0.754464
332.595900 0.525756
332.809100 0.716025
333.022300 0.593008
333.235600 3.633468
333.448900 3.655235
333.662200 3.609381
333.875500 3.666331
334.088800 3.518251
334.302100 0.618961
334.515400 3.647089
334.728800 1.046374
334.942200 3.626956
335.155500 1.189305
335.368900 1.295966
335.582300 3.640879
335.795800 3.676968
336.009200 3.743823
336.222700 3.666237
336.436100 0.991259
336.649600 3.795949
336.863100 0.977083
337.076600 1.900544
337.290100 0.902539
337.503600 3.672098
337.717200 0.992877
337.930700 0.644985
338.144300 1.121121
338.357900 0.578559
338.571500 0.722233
338.785100 3.703205
338.998700 0.625120
339.212400 1.552861
339.426000 1.402514
339.639700 3.667266
339.853300 3.765594
340.067000 1.854897
340.280700 0.650983
340.494500 3.790074
340.708200 2.201475
340.921900 3.796644
341.135700 0.890243
341.349500 0.304105
341.563300 1.355316
341.777100 3.818094
341.990900 0.599951
342.204700 3.816042
342.418500 3.869232
342.632400 3.830460
342.846300 1.072751
343.060100 0.294215
343.274000 0.795653
343.487900 3.871748
343.701900 3.795185
343.915800 1.042513
344.129700 0.745212
344.343700 3.778006
344.557700 0.840724
344.771700 0.898004
344.985700 1.704987
345.199700 3.834484
345.413700 0.897343
345.627700 3.783332
345.841800 0.886444
346.055900 1.704905
346.269900 0.924162
346.484000 1.749396
346.698100 3.825686
346.912300 3.850340
347.126400 1.643561
347.340600 3.899164
347.554700 3.883264
347.768900 3.886321
347.983100 1.551123
348.197300 3.889246
348.411500 1.029001
348.625700 3.866760
348.840000 0.672790
349.054200 1.286599
349.268500 1.491991
349.482800 0.746248
349.697100 0.875530
349.911400 1.081258
350.125700 1.449673
350.340000 3.937869
350.554400 3.966001
350.768700 0.968324
350.983100 1.346112
351.197500 1.229329
351.411900 1.304102
351.626300 1.103048
351.840700 1.264062
352.055200 1.009241
352.269600 2.415403
352.484100 1.871670
352.698600 3.990072
352.913100 0.826819
353.127600 0.819579
353.342100 3.948266
353.556600 3.994713
353.771200 1.389486
353.985800 2.057152
354.200300 3.930898
354.414900 1.036611
354.629500 1.173143
354.844100 1.227860
355.058800 1.976243
355.273400 3.971369
355.488100 3.989138
355.702700 1.530550
355.917400 0.666614
356.132100 4.015527
356.346800 0.761630
356.561500 1.741913
356.776300 1.019603
356.991000 1.127096
357.205800 3.987264
357.420600 3.988202
357.635300 1.130175
357.850100 1.358701
358.065000 3.991935
358.279800 0.765705
358.494600 1.533484
358.709500 1.863660
358.924300 0.861188
359.139200 1.305216
359.354100 3.988202
359.569000 1.516173
359.783900 3.987264
359.998900 1.034738
360.213800 4.019947
360.428800 1.010412
360.643800 1.017766
360.858700 0.724409
361.073700 1.258293
361.288800 0.856317
361.503800 4.026452
361.718800 3.995196
361.933900 1.034812
362.148900 1.014268
362.364000 2.246525
362.579100 0.969774
362.794200 0.965162
363.009300 0.846424
363.224500 1.108481
363.439600 0.856668
363.654800 4.034989
363.869900 1.432668
364.085100 1.097221
364.300300 1.133887
364.515500 1.184591
364.730800 0.859268
364.946000 1.289195
365.161200 0.844748
365.376500 4.086360
365.591800 4.054805
365.807100 4.020403
366.022400 1.416961
366.237700 2.191531
366.453000 4.118562
366.668400 1.628477
366.883700 1.129640
367.099100 2.329434
367.314500 4.085968
367.529900 4.111531
367.745300 4.114678
367.960700 1.879860
368.176100 1.148589
368.391600 1.031812
368.607000 1.104921
368.822500 1.057671
369.038000 0.877867
369.253500 1.333992
369.469000 0.956108
369.684500 4.136974
369.900100 1.186056
370.115600 2.921798
370.331200 0.783558
370.546800 0.822067
370.762400 1.432296
370.978000 1.588162
371.193600 1.643453
371.409200 1.202072
371.624900 4.160709
371.840500 1.414716
372.056200 1.668663
372.271900 4.101128
372.487600 2.101002
372.703300 4.129915
372.919000 1.186285
373.134800 1.298821
373.350500 1.210909
373.566300 4.154637
373.782000 1.410200
373.997800 2.421310
374.213600 4.167937
374.429400 4.167613
374.645300 1.013176
374.861100 1.356413
375.077000 1.130529
375.292800 2.638261
375.508700 1.008664
375.724600 1.399682
375.940500 2.674336
376.156400 4.224455
376.372400 1.445793
376.588300 1.379818
376.804300 1.554384
377.020300 1.821069
377.236200 1.559356
377.452200 2.521628
377.668200 4.261620
377.884300 1.159987
378.100300 1.733437
378.316400 1.865368
378.532400 2.384537
378.748500 4.301356
378.964600 1.092083
379.180700 4.308394
379.396800 2.322553
379.612900 1.207823
379.829100 1.557885
380.045200 2.206579
380.261400 1.464122
380.477600 4.319085
380.693800 2.531114
380.910000 1.115312
381.126200 1.386807
381.342400 1.660043
381.558700 4.275910
381.774900 4.288607
381.991200 4.304318
382.207500 4.314668
382.423800 1.217494
382.640100 1.559798
382.856400 4.341336
383.072800 4.319502
383.289100 1.499173
383.505500 4.335458
383.721900 4.350442
383.938200 4.339471
384.154600 1.825271
384.371100 4.337779
384.587500 2.039161
384.803900 1.706973
385.020400 4.355509
385.236800 4.356332
385.453300 1.362738
385.669800 1.198939
385.886300 2.281564
386.102800 1.661150
386.319400 1.454145
386.535900 4.371972
386.752500 2.392946
386.969000 1.601260
387.185600 4.362124
387.402200 2.009275
387.618800 1.191326
387.835500 2.317175
388.052100 1.296161
388.268700 1.394083
388.485400 1.976249
388.702100 1.954009
388.918800 1.427870
389.135500 3.274916
389.352200 4.400383
389.568900 1.079074
389.785600 1.038823
390.002400 2.498704
390.219200 1.035639
390.435900 1.750912
390.652700 1.509997
390.869500 1.588215
391.086300 0.890046
391.303200 1.566305
391.520000 1.331239
391.736900 1.361253
391.953700 0.942778
392.170600 1.135185
392.387500 1.174207
392.604400 1.064765
392.821300 1.110904
393.038300 1.041012
393.255200 0.884305
393.472200 0.978560
393.689100 0.976856
393.906100 1.202935
394.123100 0.827598
394.340100 1.057798
394.557200 0.843166
394.774200 0.998067
394.991200 0.984143
395.208300 0.874530
395.425400 0.884922
395.642500 1.288901
395.859600 0.900378
396.076700 1.007542
396.293800 0.845848
396.510900 0.908014
396.728100 0.822827
396.945300 0.801593
397.162400 0.978922
397.379600 0.767024
397.596800 0.898267
397.814000 0.881199
398.031300 0.759701
398.248500 0.767446
398.465800 0.778589
398.683000 0.764162
398.900300 0.762688
399.117600 0.864133
399.334900 0.749229
399.552200 0.786431
399.769600 0.721871
399.986900 0.859519
400.204300 0.635965
400.421600 0.655720
400.639000 0.744450
400.856400 0.637727
401.073800 0.685460
401.291200 0.774343
401.508700 0.683295
401.726100 0.625734
401.943600 0.573882
402.161000 0.618721
402.378500 0.636205
402.596000 0.618925
402.813500 0.566609
403.031000 0.601732
403.248600 0.653749
403.466100 0.637261
403.683700 0.651855
403.901300 0.594840
404.118900 0.574749
404.336500 0.625072
404.554100 0.600143
404.771700 0.682054
404.989300 0.539354
405.207000 0.560794
405.424600 0.525735
405.642300 0.570741
405.860000 0.562138
406.077700 0.605726
406.295400 0.505283
406.513100 0.490202
406.730900 0.476693
406.948600 0.521130
407.166400 0.536848
407.384200 0.534956
407.602000 0.515032
407.819800 0.516768
408.037600 0.532751
408.255400 0.511779
408.473300 0.530010
408.691100 0.491766
408.909000 0.534212
409.126900 0.457533
409.344800 0.433211
409.562700 0.412526
409.780600 0.503732
409.998500 0.490374
410.216500 0.493430
410.434400 0.502340
410.652400 0.450379
410.870400 0.413570
411.088400 0.405549
411.306400 0.450348
411.524400 0.458264
411.742400 0.428487
411.960500 0.412882
412.178500 0.392461
412.396600 0.378797
412.614700 0.391888
412.832800 0.386768
413.050900 0.401146
413.269000 0.457620
413.487100 0.403165
413.705300 0.390697
413.923400 0.453047
414.141600 0.355311
414.359800 0.375309
414.578000 0.369518
414.796200 0.379005
415.014400 0.381734
415.232600 0.343144
415.450900 0.389575
415.669200 0.375719
415.887400 0.424270
416.105700 0.343052
416.324000 0.453438
416.542300 0.334109
416.760600 0.373865
416.979000 0.370362
417.197300 0.338356
417.415700 0.352479
417.634100 0.331750
417.852400 0.342607
418.070800 0.343650
418.289300 0.325540
418.507700 0.362363
418.726100 0.350396
418.944600 0.378854
419.163000 0.324434
419.381500 0.373520
419.600000 0.376579
419.818500 0.331187
420.037000 0.300414
420.255500 0.327315
420.474100 0.336571
420.692600 0.346439
420.911200 0.315180
421.129800 0.320189
421.348300 0.317708
421.566900 0.365354
421.785600 0.303890
422.004200 0.306786
422.222800 0.288331
422.441500 0.295913
422.660100 0.285384
422.878800 0.312498
423.097500 0.299283
423.316200 0.322709
423.534900 0.281232
423.753600 0.295168
423.972400 0.281754
424.191100 0.313846
424.409900 0.305572
424.628700 0.244153
424.847500 0.318387
425.066300 0.302514
425.285100 0.281832
425.503900 0.295876
425.722800 0.278968
425.941600 0.274767
426.160500 0.270103
426.379300 0.307337
426.598200 0.275875
426.817100 0.258299
427.036100 0.279383
427.255000 0.289731
427.473900 0.276872
427.692900 0.310259
427.911800 0.310753
428.130800 0.269329
428.349800 0.292162
428.568800 0.305617
428.787800 0.250379
429.006800 0.256597
429.225900 0.262933
429.444900 0.270999
429.664000 0.260468
429.883100 0.295756
430.102200 0.268431
430.321300 0.291917
430.540400 0.289623
430.759500 0.274846
430.978700 0.304277
431.197800 0.271917
431.417000 0.272809
431.636200 0.265597
431.855300 0.259291
432.074500 0.286922
432.293800 0.276747
432.513000 0.314807
432.732200 0.278817
432.951500 0.288872
433.170700 0.267246
433.390000 0.279189
433.609300 0.306787
433.828600 0.255724
434.047900 0.266923
434.267300 0.312489
434.486600 0.277868
434.705900 0.287965
434.925300 0.323610
435.144700 0.274050
435.364100 0.244885
435.583500 0.244450
435.802900 0.235916
436.022300 0.337428
436.241800 0.226115
436.461200 0.290179
436.680700 0.279303
436.900100 0.253349
437.119600 0.252736
437.339100 0.256188
437.558600 0.280909
437.778200 0.274643
437.997700 0.284054
438.217300 0.271584
438.436800 0.269449
438.656400 0.322182
438.876000 0.274751
439.095600 0.254600
439.315200 0.276853
439.534800 0.281864
439.754500 0.281792
439.974100 0.315712
440.193800 0.287492
440.413500 0.309423
440.633100 0.268420
440.852800 0.300156
441.072500 0.298145
441.292300 0.289850
441.512000 0.281481
441.731800 0.291906
441.951500 0.274033
442.171300 0.283104
442.391100 0.306363
442.610900 0.290651
442.830700 0.260406
443.050500 0.305821
443.270300 0.263316
443.490200 0.313297
443.710100 0.331376
443.929900 0.304528
444.149800 0.320612
444.369700 0.312638
444.589600 0.288417
444.809500 0.293832
445.029500 0.320419
445.249400 0.309425
445.469400 0.331684
445.689400 0.379913
445.909300 0.335070
446.129300 0.305529
446.349300 0.292309
446.569400 0.304829
446.789400 0.325816
447.009400 0.311502
447.229500 0.322032
447.449600 0.321666
447.669600 0.306169
447.889700 0.314160
448.109800 0.304327
448.330000 0.329363
448.550100 0.357369
448.770200 0.342023
448.990400 0.302786
449.210600 0.356933
449.430700 0.330754
449.650900 0.333686
449.871100 0.319016
450.091400 0.338706
450.311600 0.363021
450.531800 0.334465
450.752100 0.356310
450.972400 0.299994
451.192600 0.348754
451.412900 0.403299
451.633200 0.354951
451.853500 0.351265
452.073900 0.353219
452.294200 0.393357
452.514600 0.403785
452.734900 0.320607
452.955300 0.359285
453.175700 0.411203
453.396100 0.331665
453.616500 0.376435
453.836900 0.393037
454.057400 0.409145
454.277800 0.421982
454.498300 0.377714
454.718800 0.413162
454.939300 0.380547
455.159700 0.366253
455.380300 0.389689
455.600800 0.374867
455.821300 0.415078
456.041900 0.445646
456.262400 0.363254
456.483000 0.419861
456.703600 0.438973
456.924200 0.443012
457.144800 0.426135
457.365400 0.407271
457.586000 0.432249
457.806700 0.426058
458.027400 0.438646
458.248000 0.450164
458.468700 0.445139
458.689400 0.425639
458.910100 0.465723
459.130800 0.479466
459.351600 0.431034
459.572300 0.470568
459.793100 0.479271
460.013800 0.444907
460.234600 0.499714
460.455400 0.482334
460.676200 0.493799
460.897000 0.475615
461.117800 0.514801
461.338700 0.480916
461.559500 0.507850
461.780400 0.428307
462.001300 0.519855
462.222200 0.492093
462.443100 0.500022
462.664000 0.501915
462.884900 0.474645
463.105900 0.492114
463.326800 0.510000
463.547800 0.524791
463.768700 0.533527
463.989700 0.518512
464.210700 0.566631
464.431700 0.548105
464.652800 0.545568
464.873800 0.540663
465.094800 0.557430
465.315900 0.560369
465.537000 0.565604
465.758100 0.569547
465.979200 0.573808
466.200300 0.579622
466.421400 0.518095
466.642500 0.611939
466.863700 0.550620
467.084800 0.594294
467.306000 0.565845
467.527200 0.625945
467.748400 0.571979
467.969600 0.602096
468.190800 0.622590
468.412000 0.626198
468.633300 0.565477
468.854500 0.560035
469.075800 0.578691
469.297000 0.578229
469.518300 0.685100
469.739600 0.682108
469.961000 0.690417
470.182300 0.644557
470.403600 0.601827
470.625000 0.647377
470.846300 0.639763
471.067700 0.629747
471.289100 0.616403
471.510500 0.698483
471.731900 0.633122
471.953300 0.668031
472.174800 0.688894
472.396200 0.664349
472.617700 0.712206
472.839100 0.699427
473.060600 0.703095
473.282100 0.718410
473.503600 0.671360
473.725100 0.699080
473.946700 0.778396
474.168200 0.742349
474.389800 0.743865
474.611300 0.811079
474.832900 0.716005
475.054500 0.715614
475.276100 0.705863
475.497700 0.778990
475.719300 0.719502
475.941000 0.826925
476.162600 0.757758
476.384300 0.697756
476.606000 0.701627
476.827700 0.712553
477.049400 0.710729
477.271100 0.853152
477.492800 0.715971
477.714500 0.716831
477.936300 0.794589
478.158000 0.803545
478.379800 0.886870
478.601600 0.818078
478.823400 0.805097
479.045200 0.770771
479.267000 0.765429
479.488800 0.809110
479.710700 0.832624
479.932500 0.854444
480.154400 0.822644
480.376300 0.808220
480.598200 0.966370
480.820100 0.830891
481.042000 0.853188
481.263900 0.886846
481.485900 0.871434
481.707800 0.873036
481.929800 0.867320
482.151700 0.892371
482.373700 0.786203
482.595700 0.881285
482.817700 0.890840
483.039800 1.037964
483.261800 0.838419
483.483800 0.955717
483.705900 0.924382
483.928000 0.980905
484.150100 0.921551
484.372100 0.919105
484.594300 0.909192
484.816400 1.020764
485.038500 0.936813
485.260600 0.976384
485.482800 0.943144
485.705000 1.039629
485.927100 1.026585
486.149300 0.997081
486.371500 1.037426
486.593700 1.010980
486.816000 0.924084
487.038200 1.002695
487.260500 1.001586
487.482700 0.934648
487.705000 0.952951
487.927300 1.044225
488.149600 0.995442
488.371900 1.078243
488.594200 1.006128
488.816500 1.073189
489.038900 0.968571
489.261200 1.140583
489.483600 1.057906
489.706000 0.947497
489.928400 1.022267
490.150800 1.103199
490.373200 1.074678
490.595600 1.065461
490.818000 1.094942
491.040500 0.985553
491.263000 0.969511
491.485400 1.216406
491.707900 1.167802
491.930400 1.185199
492.152900 1.060472
492.375500 1.064207
492.598000 1.291087
492.820500 1.074617
493.043100 1.095814
493.265700 0.974552
493.488200 1.010979
493.710800 1.096290
493.933400 1.235472
494.156100 1.005287
494.378700 1.081923
494.601300 1.171416
494.824000 1.325587
495.046600 1.096345
495.269300 1.177686
495.492000 1.164312
495.714700 1.195283
495.937400 1.205475
496.160100 1.064829
496.382900 1.097546
496.605600 1.035829
496.828400 1.225975
497.051100 1.187412
497.273900 1.203053
497.496700 1.129661
497.719500 1.480861
497.942300 1.094448
498.165200 1.100874
498.388000 1.239900
498.610900 1.041140
498.833700 1.141464
499.056600 1.172091
499.279500 1.219614
499.502400 1.082251
499.725300 1.428995
499.948200 1.449253
500.171200 1.174707
500.394100 1.247624
500.617100 1.102086
500.840000 1.344943
501.063000 1.203652
501.286000 1.135160
501.509000 1.192536
501.732000 1.700880
501.955100 1.096443
502.178100 1.142933
502.401200 1.226483
502.624200 1.374966
502.847300 1.269028
503.070400 1.316079
503.293500 1.063067
503.516600 1.193635
503.739700 1.162892
503.962800 1.328341
504.186000 1.138244
504.409200 1.406061
504.632300 1.044321
504.855500 1.385566
505.078700 1.189184
505.301900 1.198118
505.525100 1.344053
505.748300 1.251898
505.971600 1.367948
506.194800 1.413716
506.418100 1.174323
506.641400 1.413838
506.864700 1.200641
507.088000 1.155134
507.311300 1.064125
507.534600 1.449916
507.757900 1.176856
507.981300 1.102668
508.204600 1.163735
508.428000 1.191733
508.651400 1.117831
508.874800 1.243749
509.098200 1.209517
509.321600 1.141550
509.545000 1.223843
509.768500 1.626872
509.991900 1.190784
510.215400 1.463900
510.438800 1.070388
510.662300 1.219255
510.885800 1.080252
511.109300 1.135574
511.332900 1.109802
511.556400 1.098210
511.779900 1.166434
512.003500 1.230975
512.227000 1.002581
512.450600 1.310578
512.674200 1.037784
512.897800 1.294642
513.121400 1.172058
513.345100 1.070690
513.568700 1.171058
513.792300 1.292236
514.016000 1.025710
514.239700 1.106245
514.463400 1.085588
514.687100 1.035657
514.910800 1.050350
515.134500 1.193004
515.358200 1.003732
515.581900 1.238998
515.805700 1.236160
516.029500 1.128909
516.253200 0.956324
516.477000 0.969021
516.700800 1.020640
516.924600 1.047206
517.148500 1.134104
517.372300 1.162193
517.596100 1.031283
517.820000 1.166988
518.043900 1.050876
518.267700 1.150272
518.491600 0.935414
518.715500 1.308765
518.939500 0.944926
519.163400 1.150353
519.387300 1.096503
519.611300 1.239421
519.835200 1.035261
520.059200 0.995024
520.283200 1.179757
520.507200 1.078785
520.731200 1.069094
520.955200 1.136287
521.179200 1.163683
521.403300 0.986079
521.627300 0.979542
521.851400 1.052280
522.075500 1.032674
522.299600 1.187916
522.523700 1.017033
522.747800 1.242885
522.971900 0.965105
523.196000 0.886379
523.420200 1.077783
523.644300 0.965400
523.868500 1.008672
524.092700 1.043251
524.316900 1.051569
524.541100 1.041449
524.765300 1.008410
524.989500 1.120411
525.213800 0.987689
525.438000 1.101876
525.662300 1.100362
525.886500 0.897245
526.110800 0.990531
526.335100 0.972022
526.559400 0.879321
526.783700 0.936260
527.008100 0.967320
527.232400 0.895529
527.456800 0.840947
527.681100 0.925224
527.905500 0.851211
528.129900 0.867221
528.354300 1.273439
528.578700 0.948275
528.803100 0.890161
529.027600 0.843089
529.252000 0.961389
529.476500 0.919445
529.700900 0.826921
529.925400 0.982308
530.149900 0.961940
530.374400 0.917539
530.598900 0.909968
530.823400 0.800867
531.048000 0.949281
531.272500 0.838110
531.497100 0.936923
531.721700 0.932101
531.946200 1.012443
532.170800 0.899850
532.395400 0.872045
532.620000 0.975138
532.844700 0.823560
533.069300 0.831961
533.294000 0.748947
533.518600 0.832969
533.743300 0.874893
533.968000 0.819659
534.192700 0.941659
534.417400 0.706655
534.642100 0.823810
534.866800 0.853883
535.091600 0.816781
535.316300 0.758243
535.541100 0.807775
535.765900 0.819734
535.990700 0.800631
536.215500 0.695393
536.440300 0.767449
536.665100 0.689384
536.889900 0.678123
537.114800 0.663137
537.339600 0.852137
537.564500 0.672351
537.789400 0.736382
538.014300 0.824944
538.239200 0.739836
538.464100 0.756693
538.689000 0.662539
538.913900 0.665856
539.138900 0.725529
539.363800 0.617758
539.588800 0.687998
539.813800 0.652707
540.038800 0.707755
540.263800 0.699725
540.488800 0.662359
540.713800 0.636511
540.938900 0.566922
541.163900 0.646598
541.389000 0.633411
541.614000 0.549023
541.839100 0.598942
542.064200 0.523495
542.289300 0.611727
542.514400 0.678879
542.739600 0.605569
542.964700 0.592123
543.189900 0.531694
543.415000 0.567720
543.640200 0.609009
543.865400 0.539341
544.090600 0.500521
544.315800 0.541915
544.541000 0.523499
544.766200 0.532108
544.991500 0.545667
545.216700 0.530499
545.442000 0.562421
545.667300 0.558808
545.892600 0.535203
546.117900 0.533781
546.343200 0.537174
546.568500 0.498047
546.793800 0.531980
547.019200 0.475654
547.244500 0.517373
547.469900 0.478640
547.695300 0.434364
547.920600 0.448462
548.146000 0.472002
548.371500 0.477441
548.596900 0.462359
548.822300 0.467186
549.047800 0.473308
549.273200 0.431379
549.498700 0.440091
549.724200 0.427764
549.949600 0.458803
550.175100 0.407198
550.400700 0.405029
550.626200 0.430580
550.851700 0.425194
551.077300 0.389862
551.302800 0.431285
551.528400 0.414556
551.754000 0.419199
551.979600 0.403175
552.205200 0.422085
552.430800 0.375786
552.656400 0.394842
552.882000 0.384689
553.107700 0.376260
553.333300 0.387931
553.559000 0.360569
553.784700 0.397077
554.010400 0.425880
554.236100 0.383548
554.461800 0.364700
554.687500 0.351162
554.913200 0.342061
555.139000 0.331782
555.364800 0.368904
555.590500 0.336707
555.816300 0.314826
556.042100 0.303212
556.267900 0.333708
556.493700 0.323126
556.719500 0.304181
556.945400 0.303891
557.171200 0.322512
557.397100 0.310335
557.623000 0.310993
557.848800 0.318551
558.074700 0.311207
558.300600 0.278049
558.526600 0.275538
558.752500 0.256501
558.978400 0.262367
559.204400 0.280566
559.430300 0.299776
559.656300 0.253317
559.882300 0.275037
560.108300 0.238201
560.334300 0.243563
560.560300 0.258412
560.786300 0.261717
561.012400 0.283146
561.238400 0.260171
561.464500 0.250334
561.690500 0.229737
561.916600 0.244964
562.142700 0.223995
562.368800 0.240984
562.594900 0.243912
562.821100 0.255330
563.047200 0.211025
563.273300 0.221682
563.499500 0.199627
563.725700 0.238981
563.951900 0.202867
564.178100 0.210210
564.404300 0.238777
564.630500 0.205362
564.856700 0.205471
565.082900 0.207272
565.309200 0.207528
565.535500 0.207933
565.761700 0.180275
565.988000 0.166129
566.214300 0.186373
566.440600 0.179261
566.666900 0.185749
566.893200 0.197396
567.119600 0.196067
567.345900 0.177049
567.572300 0.196578
567.798700 0.171144
568.025000 0.175701
568.251400 0.158011
568.477800 0.177660
568.704300 0.143354
568.930700 0.165366
569.157100 0.173893
569.383600 0.166323
569.610000 0.138418
569.836500 0.157404
570.063000 0.151064
570.289500 0.154009
570.516000 0.167056
570.742500 0.157417
570.969000 0.149392
571.195600 0.153305
571.422100 0.141670
571.648700 0.160700
571.875200 0.142699
572.101800 0.139856
572.328400 0.142593
572.555000 0.128557
572.781600 0.138113
573.008200 0.140431
573.234900 0.150941
573.461500 0.139872
573.688200 0.133517
573.914900 0.131412
574.141500 0.132486
574.368200 0.128211
574.594900 0.126563
574.821600 0.118910
575.048400 0.125445
575.275100 0.122553
575.501800 0.121447
575.728600 0.120186
575.955400 0.103109
576.182100 0.130230
576.408900 0.116486
576.635700 0.115298
576.862600 0.105286
577.089400 0.103586
577.316200 0.105164
577.543100 0.106972
577.769900 0.100737
577.996800 0.105380
578.223700 0.111121
578.450500 0.099719
578.677400 0.098802
578.904400 0.093465
579.131300 0.096974
579.358200 0.094630
579.585100 0.082423
579.812100 0.089299
580.039100 0.090319
580.266000 0.084854
580.493000 0.083608
580.720000 0.083728
580.947000 0.083627
581.174100 0.081771
581.401100 0.083641
581.628100 0.079544
581.855200 0.084137
582.082200 0.084842
582.309300 0.077939
582.536400 0.078356
582.763500 0.065774
582.990600 0.075011
583.217700 0.072490
583.444900 0.064063
583.672000 0.063412
583.899100 0.062297
584.126300 0.064852
584.353500 0.056875
584.580700 0.053447
584.807900 0.070487
585.035100 0.077079
585.262300 0.072060
585.489500 0.070673
585.716700 0.066707
585.944000 0.071347
586.171300 0.058511
586.398500 0.058590
586.625800 0.064943
586.853100 0.050181
587.080400 0.064707
587.307700 0.048787
587.535000 0.058418
587.762400 0.051735
587.989700 0.051943
588.217100 0.059733
588.444500 0.056885
588.671800 0.060144
588.899200 0.055971
589.126600 0.046455
589.354000 0.064861
589.581500 0.039318
589.808900 0.047495
590.036300 0.051947
590.263800 0.046914
590.491300 0.054845
590.718700 0.041680
590.946200 0.051506
591.173700 0.052445
591.401200 0.057307
591.628800 0.052742
591.856300 0.039411
592.083800 0.051486
592.311400 0.050039
592.538900 0.040047
592.766500 0.047293
592.994100 0.044777
593.221700 0.044301
593.449300 0.047477
593.676900 0.045637
593.904600 0.048511
594.132200 0.040413
594.359800 0.027212
594.587500 0.042022
594.815200 0.034754
595.042900 0.046598
595.270500 0.042266
595.498300 0.042721
595.726000 0.039282
595.953700 0.037834
596.181400 0.032680
596.409200 0.032901
596.636900 0.046737
596.864700 0.041043
597.092500 0.044939
597.320300 0.036990
597.548100 0.034446
597.775900 0.051889
598.003700 0.039897
598.231500 0.037631
598.459400 0.038496
598.687200 0.051072
598.915100 0.040694
599.143000 0.045923
599.370900 0.050141
599.598800 0.029710
599.826700 0.032486
600.054600 0.038738
600.282500 0.034986
600.510500 0.026788
600.738400 0.031121
600.966400 0.026252
601.194400 0.031228
601.422300 0.023370
601.650300 0.016142
601.878300 0.031147
602.106400 0.034081
602.334400 0.027849
602.562400 0.024957
602.790500 0.033742
603.018500 0.018306
603.246600 0.024078
603.474700 0.027660
603.702800 0.033667
603.930900 0.031345
604.159000 0.040639
604.387100 0.038025
604.615200 0.026495
604.843400 0.021145
605.071500 0.028606
605.299700 0.019909
605.527900 0.019249
605.756100 0.016568
605.984300 0.013618
606.212500 0.017643
606.440700 0.009712
606.668900 0.008217
606.897200 0.007372
607.125400 0.028968
607.353700 0.025554
607.581900 0.024753
607.810200 0.024298
608.038500 0.015865
608.266800 0.013992
608.495100 0.014981
608.723500 0.008622
608.951800 0.027995
609.180100 0.009370
609.408500 0.021026
609.636900 0.013542
609.865300 0.013479
610.093600 0.028775
610.322000 0.024311
610.550500 0.018422
610.778900 0.017188
611.007300 0.010411
611.235700 0.036154
611.464200 0.037649
611.692700 0.028174
611.921100 0.020038
612.149600 0.027905
612.378100 0.024626
612.606600 0.018291
612.835100 0.021771
613.063700 0.026568
613.292200 0.022410
613.520800 0.023481
613.749300 0.014630
613.977900 0.024461
614.206500 0.010626
614.435100 0.016490
614.663700 0.024272
614.892300 0.010244
615.120900 0.003542
615.349500 0.036519
615.578200 0.020511
615.806800 0.012501
616.035500 0.014047
616.264200 0.014103
616.492900 0.018875
616.721600 0.012133
616.950300 0.012232
617.179000 0.004187
617.407700 0.009688
617.636500 0.002312
617.865200 0.019140
618.094000 0.008561
618.322700 0.013684
618.551500 -0.013132
618.780300 0.013429
619.009100 0.005605
619.237900 0.020733
619.466700 0.003420
619.695600 -0.004914
619.924400 0.018136
620.153300 0.024668
620.382100 0.013270
620.611000 0.011211
620.839900 -0.012091
621.068800 0.002502
621.297700 0.003974
621.526600 0.006315
621.755600 0.015286
621.984500 0.012965
622.213500 -0.000841
622.442400 0.002424
622.671400 0.024504
622.900400 0.013493
623.129400 0.017072
623.358400 -0.001198
623.587400 0.003976
623.816400 0.001224
624.045400 0.029544
624.274500 0.011372
624.503500 -0.005566
624.732600 -0.000657
624.961700 0.019710
625.190800 -0.013154
625.419900 -0.003199
625.649000 0.010584
625.878100 0.036050
626.107200 -0.004757
626.336400 -0.009771
626.565500 0.027881
626.794700 0.013617
627.023800 0.003104
627.253000 -0.006774
627.482200 0.013836
627.711400 -0.013011
627.940600 0.007789
628.169800 -0.009270
628.399100 0.007458
628.628300 0.004209
628.857600 -0.011132
629.086800 0.002753
629.316100 0.001874
629.545400 -0.005592
629.774700 0.015670
630.004000 0.005931
630.233300 0.020629
630.462600 0.015313
630.692000 0.018631
630.921300 0.014113
631.150700 0.013795
631.380100 -0.006923
631.609400 0.017150
631.838800 0.022466
632.068200 0.004919
632.297600 0.006835
632.527100 0.005764
632.756500 -0.028959
632.985900 -0.000330
633.215400 0.006056
633.444800 0.011946
633.674300 0.017287
633.903800 0.004107
634.133300 0.008389
634.362800 0.010370
634.592300 0.000540
634.821800 0.001738
635.051400 0.029794
635.280900 -0.002552
635.510500 -0.014745
635.740000 0.021077
635.969600 0.029040
636.199200 -0.002005
636.428800 0.016633
636.658400 0.017196
636.888000 -0.009042
637.117700 0.015276
637.347300 0.024673
637.577000 0.013021
637.806600 0.008736
638.036300 0.000868
638.266000 0.004204
638.495700 0.015506
638.725400 0.018186
638.955100 -0.000994
639.184800 0.012962
639.414500 0.021132
639.644300 0.013258
639.874000 -0.003703
640.103800 -0.021062
640.333600 0.006721
640.563300 -0.010973
640.793100 -0.006158
641.022900 0.018329
641.252800 0.024092
641.482600 0.016532
641.712400 0.008995
641.942300 0.028017
642.172100 0.002690
642.402000 -0.007054
642.631900 -0.025203
642.861700 -0.022418
643.091600 0.042727
643.321600 0.002330
643.551500 -0.017753
643.781400 0.031103
644.011300 -0.004728
644.241300 -0.002023
644.471200 -0.016625
644.701200 -0.038199
644.931200 0.015905
645.161200 0.006292
645.391200 0.015694
645.621200 0.055374
645.851200 -0.030670
646.081200 -0.020769
646.311300 0.015992
646.541300 -0.017948
646.771400 -0.001684
647.001500 0.016626
647.231600 -0.014618
647.461600 0.025126
647.691800 -0.027220
647.921900 0.014371
648.152000 -0.003326
648.382100 0.031882
648.612300 0.019945
648.842400 0.015722
649.072600 0.029858
649.302800 0.009962
649.532900 0.009143
649.763100 -0.019277
649.993300 -0.001877
650.223600 -0.008638
650.453800 -0.021790
650.684000 -0.003007
650.914300 -0.020010
651.144500 0.026217
651.374800 0.006496
651.605100 0.020035
651.835400 0.001805
652.065700 0.003113
652.296000 0.005787
652.526300 0.015909
652.756600 -0.006943
652.987000 0.013193
653.217300 -0.025480
653.447700 0.009751
653.678000 0.034269
653.908400 -0.030531
654.138800 0.024334
654.369200 0.026176
654.599600 0.027780
654.830000 0.039812
655.060500 -0.000408
655.290900 -0.011644
655.521300 0.023920
655.751800 0.026693
655.982300 0.002910
656.212800 0.000974
656.443300 0.001458
656.673800 0.001232
656.904300 0.002850
657.134800 0.020435
657.365300 0.024047
657.595900 0.023435
657.826400 0.018368
658.057000 0.024842
658.287500 0.015720
658.518100 0.010268
658.748700 0.011326
658.979300 0.012132
659.209900 -0.004005
659.440600 -0.028054
659.671200 -0.039032
659.901800 -0.040738
660.132500 -0.046743
660.363200 -0.029721
660.593800 -0.012452
660.824500 0.013924
661.055200 -0.011755
661.285900 0.028523
661.516600 0.000091
661.747400 0.029139
661.978100 0.006031
662.208800 0.024403
662.439600 0.034789
662.670400 0.038625
662.901100 0.012050
663.131900 0.042400
663.362700 0.008269
663.593500 0.024843
663.824300 0.040320
664.055200 0.034486
664.286000 -0.030860
664.516800 0.044672
664.747700 0.071346
664.978600 0.013055
665.209400 0.030906
665.440300 0.027744
665.671200 0.028446
665.902100 0.039713
666.133000 0.045795
666.364000 -0.003292
666.594900 -0.015539
666.825900 0.002034
667.056800 0.015381
667.287800 0.013418
667.518800 -0.016419
667.749700 0.002947
667.980700 0.026186
668.211700 -0.008614
668.442800 -0.004801
668.673800 0.055220
668.904800 -0.015105
669.135900 0.047615
669.366900 0.040474
669.598000 -0.013563
669.829100 0.002021
670.060200 -0.003715
670.291300 0.032530
670.522400 0.038040
670.753500 0.009920
670.984600 0.030099
671.215700 0.017313
671.446900 0.033327
671.678100 0.027473
671.909200 0.017888
672.140400 0.027528
672.371600 0.008004
672.602800 0.008833
672.834000 0.010663
673.065200 0.008464
673.296400 -0.001047
673.527700 -0.011230
673.758900 0.015484
673.990200 -0.009704
674.221400 0.012214
674.452700 0.010658
674.684000 0.013415
674.915300 0.036997
675.146600 0.015152
675.377900 -0.006129
675.609300 0.017921
675.840600 0.014745
676.071900 0.025988
676.303300 0.004740
676.534700 -0.040442
676.766100 0.007901
676.997400 -0.004645
677.228800 0.048406
677.460200 0.001831
677.691700 0.009713
677.923100 0.008038
678.154500 -0.006714
678.386000 -0.019158
678.617400 0.007011
678.848900 0.012153
679.080400 -0.025159
679.311900 0.014028
679.543400 0.041361
679.774900 -0.001871
680.006400 0.039792
680.237900 0.006731
680.469400 0.014034
680.701000 0.051569
680.932500 -0.015922
681.164100 0.005438
681.395700 0.020922
681.627300 0.048104
681.858900 0.012285
682.090500 0.000896
682.322100 -0.020807
682.553700 -0.003791
682.785400 -0.001838
683.017000 0.007021
683.248700 0.010419
683.480300 -0.000182
683.712000 -0.028548
683.943700 -0.002698
684.175400 0.005839
684.407100 -0.010512
684.638800 0.024095
684.870500 0.023006
685.102300 0.017708
685.334000 0.014665
685.565800 0.012168
685.797500 -0.020103
686.029300 0.005538
686.261100 0.022392
686.492900 0.010327
686.724700 -0.010465
686.956500 0.007514
687.188300 0.015463
687.420200 0.008790
687.652000 0.005034
687.883800 -0.001103
688.115700 -0.000097
688.347600 0.014298
688.579500 -0.019364
688.811400 -0.011319
689.043300 -0.005892
689.275200 -0.010277
689.507100 0.014504
689.739000 -0.019644
689.971000 0.002164
690.202900 0.025865
690.434900 0.011941
690.666900 -0.009477
690.898800 0.007320
691.130800 0.015073
691.362800 -0.015161
691.594800 0.015046
691.826900 0.013835
692.058900 0.000385
692.290900 0.024405
692.523000 0.065049
692.755000 0.012579
692.987100 0.006116
693.219200 0.023741
693.451300 0.004068
693.683400 0.011564
693.915500 0.007386
694.147600 0.025733
694.379700 0.013765
694.611900 0.008807
694.844000 0.014462
695.076200 -0.024840
695.308300 0.015742
695.540500 0.046963
695.772700 -0.039859
696.004900 0.029636
696.237100 0.027980
696.469300 0.017908
696.701600 0.033989
696.933800 -0.005226
697.166000 0.022696
697.398300 0.032686
697.630600 0.020560
697.862800 0.031481
698.095100 0.018980
698.327400 0.019543
698.559700 0.033634
698.792000 -0.005174
699.024300 0.009781
699.256700 0.024715
699.489000 0.005802
699.721400 0.045502
699.953700 -0.012225
700.186100 -0.008674
700.418500 -0.005432
700.650900 0.000107
700.883300 -0.011580
701.115700 0.014739
701.348100 -0.006306
701.580600 0.010490
701.813000 0.004616
702.045400 0.031742
702.277900 -0.022602
702.510400 -0.006226
702.742900 -0.006654
702.975300 0.004084
703.207800 0.004803
703.440300 0.009316
703.672900 0.049941
703.905400 -0.015056
704.137900 0.007701
704.370500 0.021127
704.603000 -0.000470
704.835600 0.029956
705.068200 -0.007836
705.300800 0.030119
705.533400 0.000616
705.766000 0.010748
705.998600 0.024599
706.231200 -0.010772
706.463800 0.052961
706.696500 -0.003758
706.929100 0.007841
707.161800 -0.020733
707.394500 -0.008068
707.627200 -0.018752
707.859900 0.036602
708.092600 0.015683
708.325300 0.013624
708.558000 0.015759
708.790700 0.011938
709.023500 0.038059
709.256200 0.008631
709.489000 -0.028315
709.721700 -0.004097
709.954500 0.032783
710.187300 -0.007225
710.420100 0.001607
710.652900 -0.029875
710.885700 -0.002488
711.118600 -0.000876
711.351400 -0.039749
711.584200 -0.009667
711.817100 -0.004291
712.050000 -0.016672
712.282800 0.003518
712.515700 -0.014285
712.748600 0.026573
712.981500 -0.019750
713.214400 0.011653
713.447400 0.005931
713.680300 0.020405
713.913200 0.026123
714.146200 -0.009303
714.379100 -0.007015
714.612100 0.000584
714.845100 0.024236
715.078100 0.037083
715.311100 -0.038937
715.544100 0.017441
715.777100 0.018894
716.010200 -0.005378
716.243200 -0.027366
716.476200 0.022999
716.709300 0.022790
716.942400 0.012686
717.175400 0.025108
717.408500 0.019840
717.641600 -0.002873
717.874700 -0.002104
718.107800 0.026273
718.341000 0.031818
718.574100 -0.002595
718.807200 0.035608
719.040400 0.017487
719.273600 -0.015875
719.506700 0.027669
719.739900 -0.015833
719.973100 0.001009
720.206300 -0.007284
720.439500 0.005811
720.672700 0.000779
720.906000 0.012013
721.139200 -0.026602
721.372500 0.016733
721.605700 0.016164
721.839000 0.027765
722.072300 0.010486
722.305500 0.006418
722.538800 0.010093
722.772100 -0.000501
723.005500 -0.049158
723.238800 0.022307
723.472100 -0.000155
723.705500 0.011693
723.938800 -0.007093
724.172200 -0.013279
724.405600 0.011702
724.638900 0.003268
724.872300 -0.010583
725.105700 0.015584
725.339100 0.019445
725.572600 0.020496
725.806000 -0.000323
726.039400 0.012445
726.272900 0.019451
726.506300 -0.019891
726.739800 0.040651
726.973300 0.028312
727.206800 0.010300
727.440300 0.037598
727.673800 0.009773
727.907300 0.012774
728.140800 -0.012706
728.374300 -0.017275
728.607900 0.004282
728.841400 -0.006007
729.075000 -0.007968
729.308600 -0.023657
729.542100 -0.000200
729.775700 -0.001899
730.009300 -0.000699
730.242900 0.016897
730.476600 0.049039
730.710200 0.021760
730.943800 0.007202
731.177500 0.044179
731.411100 0.005222
731.644800 0.026487
731.878500 0.005456
732.112200 0.006541
732.345800 -0.008521
732.579500 0.023532
732.813300 -0.000857
733.047000 0.013569
733.280700 0.011543
733.514500 0.001867
733.748200 0.029136
733.982000 0.027914
734.215700 0.005207
734.449500 0.027440
734.683300 0.015797
734.917100 0.004836
735.150900 0.022127
735.384700 0.011806
735.618500 0.019383
735.852400 0.014369
736.086200 0.010501
736.320100 -0.017099
736.553900 0.034063
736.787800 0.007701
737.021700 0.003124
737.255600 -0.008188
737.489500 -0.009958
737.723400 -0.008394
737.957300 0.003349
738.191200 -0.006730
738.425200 0.009728
738.659100 -0.009184
738.893100 -0.022314
739.127100 0.024980
739.361000 0.005522
739.595000 -0.000529
739.829000 0.002102
740.063000 0.003950
740.297000 -0.014701
740.531000 0.007964
740.765100 -0.009292
740.999100 0.025793
741.233200 0.007000
741.467200 0.027829
741.701300 -0.012557
741.935400 0.004924
742.169500 -0.002633
742.403600 0.017252
742.637700 0.026395
742.871800 0.014994
743.105900 -0.005893
743.340000 0.018976
743.574200 0.003515
743.808300 -0.024650
744.042500 -0.019295
744.276700 0.001232
744.510800 0.006898
744.745000 -0.008438
744.979200 0.012215
745.213400 0.037774
745.447700 0.036629
745.681900 0.002860
745.916100 0.043965
746.150400 0.009012
746.384600 0.004785
746.618900 -0.027505
746.853200 0.018734
747.087400 0.008144
747.321700 0.044624
747.556000 -0.011142
747.790300 0.023753
748.024700 -0.018126
748.259000 -0.006593
748.493300 0.001408
748.727700 0.004495
748.962000 0.025384
749.196400 -0.000770
749.430800 -0.018534
749.665200 0.000625
749.899500 0.003423
750.133900 -0.002038
750.368400 -0.005720
750.602800 0.020154
750.837200 0.003784
751.071700 0.026066
751.306100 0.017122
751.540600 0.006849
751.775000 0.009589
752.009500 0.007876
752.244000 0.006918
752.478500 -0.014945
752.713000 0.009894
752.947500 -0.007234
753.182000 -0.013112
753.416600 0.000638
753.651100 0.023131
753.885600 -0.000546
754.120200 0.019288
754.354800 0.022377
754.589400 0.002192
754.823900 -0.007314
755.058500 0.008711
755.293100 -0.014666
755.527800 0.006571
755.762400 0.011872
755.997000 0.003152
756.231700 0.024287
756.466300 -0.003791
756.701000 0.005335
756.935600 -0.002903
757.170300 0.012992
757.405000 0.029121
757.639700 0.024713
757.874400 0.023985
758.109100 0.023324
758.343800 0.004791
758.578600 0.022117
758.813300 0.001824
759.048100 -0.001081
759.282800 -0.006367
759.517600 -0.001858
759.752400 0.016220
759.987200 0.004312
760.222000 0.014501
760.456800 0.006984
760.691600 0.015548
760.926400 0.008368
761.161300 0.013595
761.396100 0.005271
761.631000 0.010767
761.865800 0.021334
762.100700 0.018590
762.335600 0.036869
762.570500 0.012765
762.805400 0.004573
763.040300 -0.001643
763.275200 -0.000981
763.510100 0.011058
763.745000 0.030074
763.980000 0.047059
764.214900 -0.011348
764.449900 -0.006478
764.684900 0.013764
764.919800 0.007693
765.154800 -0.005373
765.389800 0.024162
765.624800 0.021805
765.859900 -0.003937
766.094900 0.007959
766.329900 0.009675
766.565000 0.020226
766.800000 -0.001231
767.035100 -0.022973
767.270100 0.004452
767.505200 -0.000563
767.740300 0.014912
767.975400 -0.003246
768.210500 0.004727
768.445600 0.007420
768.680800 0.015860
768.915900 0.029715
769.151000 0.013524
769.386200 0.014017
769.621400 -0.004400
769.856500 0.001230
770.091700 0.010011
770.326900 -0.007944
770.562100 0.009850
770.797300 0.000445
771.032500 0.005644
771.267700 0.022227
771.503000 0.004890
771.738200 0.028332
771.973500 -0.037226
772.208700 0.000881
772.444000 0.042441
772.679300 0.022246
772.914600 -0.010868
773.149900 -0.002686
773.385200 0.012323
773.620500 0.005424
773.855800 0.022335
774.091100 -0.005977
774.326500 0.015218
774.561800 0.005274
774.797200 0.011209
775.032600 0.031595
775.267900 -0.000313
775.503300 0.000766
775.738700 -0.000150
775.974100 0.020743
776.209500 0.003807
776.445000 0.034202
776.680400 0.024397
776.915800 0.040808
777.151300 -0.002327
777.386800 -0.009999
777.622200 0.011154
777.857700 -0.020341
778.093200 -0.022042
778.328700 -0.006534
778.564200 -0.013670
778.799700 0.027703
779.035200 -0.006386
779.270700 -0.002699
779.506300 0.002852
779.741800 -0.004792
779.977400 0.032240
780.213000 0.022923
780.448500 0.004642
780.684100 -0.006310
780.919700 0.016240
781.155300 -0.006842
781.390900 0.025709
781.626500 0.005080
781.862200 0.038172
782.097800 0.021382
782.333500 0.011183
782.569100 -0.004042
782.804800 0.002611
783.040500 -0.006470
783.276100 -0.005508
783.511800 0.010735
783.747500 0.025740
783.983200 -0.008309
784.219000 0.014306
784.454700 -0.007351
784.690400 0.029223
784.926200 0.004122
785.161900 0.002427
785.397700 0.020250
785.633500 -0.012366
785.869200 0.025868
786.105000 -0.006518
786.340800 0.003865
786.576600 0.038637
786.812400 0.021337
787.048300 0.007504
787.284100 0.025075
787.519900 0.017001
787.755800 0.007707
787.991700 0.003480
788.227500 0.020572
788.463400 -0.008465
788.699300 0.006054
788.935200 0.011134
789.171100 0.028264
789.407000 0.004701
789.642900 0.041206
789.878900 0.014572
790.114800 0.035616
790.350700 -0.011261
790.586700 0.025276
790.822700 0.018879
791.058600 0.017068
791.294600 -0.000489
791.530600 -0.038898
791.766600 0.008443
792.002600 0.016504
792.238700 0.001103
792.474700 0.031436
792.710700 -0.029351
792.946800 -0.024713
793.182800 -0.000717
793.418900 0.038437
793.655000 0.020014
793.891000 0.032038
794.127100 0.033261
794.363200 0.026729
794.599300 0.027486
794.835500 -0.003183
795.071600 0.032896
795.307700 0.020827
795.543900 -0.005936
795.780000 0.007982
796.016200 -0.003529
796.252300 0.034664
796.488500 0.063544
796.724700 0.031775
796.960900 0.021411
797.197100 0.045325
797.433300 -0.022554
797.669500 0.008871
797.905800 -0.013017
798.142000 0.037103
798.378300 -0.002456
798.614500 0.028573
798.850800 0.026743
799.087100 0.006946
799.323300 0.021145
799.559600 -0.034236
799.795900 0.052938
800.032200 0.033813
800.268600 -0.033047
800.504900 0.001521
800.741200 0.007797
800.977600 0.000179
801.213900 0.049348
801.450300 0.064856
801.686700 -0.019690
801.923000 -0.011172
802.159400 0.010241
802.395800 -0.010529
802.632200 0.026425
802.868600 -0.078436
803.105100 0.020797
803.341500 -0.024659
803.577900 0.102164
803.814400 -0.013605
804.050800 -0.012655
804.287300 0.049398
804.523800 0.005794
804.760300 0.027589
804.996800 -0.027871
805.233300 0.017353
805.469800 0.062832
805.706300 0.001778
805.942800 0.003460
806.179400 -0.030452
806.415900 -0.016896
806.652500 0.006987
806.889000 0.061425
807.125600 0.005006
807.362200 0.037399
807.598800 0.015809
807.835400 -0.009424
808.072000 0.006633
808.308600 0.024702
808.545200 0.036216
808.781800 -0.012180
809.018500 0.049227
809.255100 -0.024440
809.491800 0.007580
809.728400 0.004040
809.965100 0.002247
810.201800 0.020836
810.438500 -0.001311
810.675200 0.008273
810.911900 -0.018786
811.148600 0.057896
811.385300 0.004055
811.622100 -0.006118
811.858800 -0.005553
812.095600 0.036800
812.332300 0.030706
812.569100 -0.020618
812.805900 -0.035087
813.042700 0.052482
813.279500 0.037257
813.516300 -0.051879
813.753100 0.045608
813.989900 0.040345
814.226700 0.028278
814.463600 0.041286
814.700400 0.027424
814.937300 0.002873
815.174200 0.060051
815.411000 -0.031964
815.647900 0.003475
815.884800 -0.029819
816.121700 -0.010725
816.358600 -0.001875
816.595500 0.054661
816.832400 0.006146
817.069400 -0.057112
817.306300 0.007500
817.543300 0.016549
817.780200 -0.027070
818.017200 0.048541
818.254200 0.021711
818.491200 0.049300
818.728200 0.021714
818.965200 0.003480
819.202200 0.016134
819.439200 0.045607
819.676200 -0.080509
819.913300 -0.038666
820.150300 -0.003960
820.387400 0.008798
820.624400 0.028210
820.861500 -0.015240
821.098600 0.025850
821.335700 0.070794
821.572700 -0.007988
821.809900 0.007672
822.047000 0.009938
822.284100 -0.037363
822.521200 0.047343
822.758400 0.073995
822.995500 0.037351
823.232700 0.041907
823.469800 0.029625
823.707000 0.011178
823.944200 -0.041117
824.181400 0.070118
824.418600 0.024782
824.655800 -0.009233
824.893000 0.060765
825.130200 -0.021781
825.367500 0.002339
825.604700 0.026713
825.841900 -0.058636
826.079200 -0.016002
826.316500 0.036814
826.553700 -0.056218
826.791000 -0.006790
827.028300 0.037395
827.265600 0.051324
827.502900 0.035902
827.740200 0.059643
827.977600 -0.079829
828.214900 0.043611
828.452200 -0.012197
828.689600 -0.010502
828.927000 -0.022183
829.164300 -0.071290
829.401700 -0.069170
829.639100 0.010555
829.876500 0.005874
830.113900 0.017999
830.351300 0.018892
830.588700 0.021823
830.826100 0.031225
831.063600 0.012011
831.301000 -0.063451
831.538500 0.028259
831.775900 0.046271
832.013400 0.027147
832.250900 0.006461
832.488400 0.081096
832.725900 0.085056
832.963400 0.000770
833.200900 0.058921
833.438400 0.096028
833.675900 0.071861
833.913500 0.071993
834.151000 0.014912
834.388600 0.034784
834.626100 -0.003598
834.863700 0.044075
835.101300 0.054851
835.338900 -0.019621
835.576500 -0.005546
835.814100 0.041631
836.051700 0.073766
836.289300 0.059415
836.526900 0.012200
836.764600 0.045466
837.002200 0.024435
837.239900 0.016497
837.477500 0.027684
837.715200 -0.087949
837.952900 0.072113
838.190600 0.135746
838.428300 -0.075106
838.666000 0.093734
838.903700 -0.001509
839.141400 0.064180
839.379100 -0.018354
839.616900 -0.099307
839.854600 -0.006445
840.092400 0.029472
840.330200 0.058500
840.567900 0.029509
840.805700 0.022833
841.043500 0.157819
841.281300 -0.003288
841.519100 -0.011319
841.756900 0.012312
841.994700 -0.013628
842.232600 0.027554
842.470400 -0.016872
842.708200 -0.107429
842.946100 -0.054766
843.184000 -0.096175
843.421800 -0.052285
843.659700 0.076840
843.897600 -0.070765
844.135500 0.034230
844.373400 0.178004
844.611300 0.088006
844.849200 0.026942
845.087200 0.098466
845.325100 0.054977
845.563100 0.005957
845.801000 0.030812
846.039000 0.016033
846.277000 -0.042011
846.514900 -0.093066
846.752900 0.024830
846.990900 -0.144339
847.228900 -0.040829
847.466900 0.189428
847.705000 0.045614
847.943000 -0.014073
848.181000 0.027116
848.419100 -0.088352
848.657100 0.023929
848.895200 0.090074
849.133300 0.082743
849.371300 0.059032
849.609400 -0.032009
849.847500 0.024621
850.085600 -0.048458
850.323700 0.248274
850.561900 -0.093440
850.800000 0.055546
851.038100 -0.054363
851.276300 -0.062211
851.514400 -0.075207
851.752600 0.026351
851.990800 0.034762
852.228900 -0.074133
852.467100 0.041249
852.705300 -0.042184
852.943500 0.057870
853.181700 0.071267
853.420000 -0.049436
853.658200 0.024325
853.896400 0.024919
854.134700 -0.031898
854.372900 -0.012674
854.611200 0.017046
854.849500 0.089072
855.087700 0.033430
855.326000 0.078998
855.564300 0.016905
855.802600 0.029970
856.040900 0.080530
856.279200 0.046766
856.517600 0.034157
856.755900 0.014526
856.994200 -0.002642
857.232600 0.031647
857.471000 0.007505
857.709300 0.032951
857.947700 0.046222
858.186100 0.019538
858.424500 -0.089893
858.662900 -0.038876
858.901300 0.036203
859.139700 0.007225
859.378100 -0.017813
859.616600 0.040508
859.855000 -0.048475
860.093500 -0.029380
860.331900 0.029890
860.570400 0.004905
860.808900 0.134846
861.047300 -0.003334
861.285800 0.068556
861.524300 0.086995
861.762800 0.007938
862.001300 0.053918
862.239900 0.100164
862.478400 -0.044168
862.716900 0.015614
862.955500 0.011862
863.194000 -0.037065
863.432600 0.018116
863.671200 0.049874
863.909800 -0.024155
864.148300 -0.060900
864.386900 0.038925
864.625500 0.069889
864.864200 0.086623
865.102800 -0.120732
865.341400 0.164965
865.580000 -0.074331
865.818700 0.117575
866.057300 -0.052096
866.296000 0.104494
866.534700 0.057451
866.773300 0.142997
867.012000 0.034200
867.250700 0.006379
867.489400 -0.042248
867.728100 -0.059455
867.966900 0.023416
868.205600 0.199788
868.444300 0.052196
868.683100 -0.077660
868.921800 -0.020766
869.160600 -0.072832
869.399300 0.089995
869.638100 0.013673
869.876900 -0.020301
870.115700 0.008560
870.354500 0.023973
870.593300 -0.128993
870.832100 0.029436
871.070900 0.043904
871.309700 0.031095
871.548600 0.083294
871.787400 -0.097133
872.026300 0.043832
872.265100 -0.044645
872.504000 0.075823
872.742900 0.005355
872.981800 0.056816
873.220700 0.040747
873.459600 0.107701
873.698500 0.118342
873.937400 0.080770
874.176300 0.162044
874.415300 0.041029
874.654200 -0.064778
874.893200 0.111789
875.132100 0.058125
875.371100 -0.109376
875.610100 0.147009
875.849100 -0.016376
876.088000 -0.011939
876.327000 0.003546
876.566100 0.067859
876.805100 0.103194
877.044100 -0.019402
877.283100 -0.095197
877.522200 -0.182422
877.761200 0.029913
878.000300 0.000487
878.239300 0.049071
878.478400 0.077687
878.717500 0.029751
878.956600 0.030037
879.195700 0.050962
879.434800 -0.066759
879.673900 0.095013
879.913000 0.028842
880.152100 0.035398
880.391300 0.019815
880.630400 -0.027174
880.869600 0.001531
881.108700 -0.038799
881.347900 0.094501
881.587100 -0.001420
881.826200 0.007947
882.065400 0.019772
882.304600 0.105349
882.543800 0.019163
882.783100 0.138280
883.022300 0.019979
883.261500 -0.087137
883.500700 0.143639
883.740000 0.012884
883.979200 0.083046
884.218500 0.010140
884.457800 0.049180
884.697100 -0.040899
884.936300 -0.023782
885.175600 0.026138
885.414900 0.078871
885.654200 0.029123
885.893600 0.020873
886.132900 0.019879
886.372200 -0.016831
886.611600 -0.136833
886.850900 0.023840
887.090300 -0.017737
887.329600 -0.012075
887.569000 -0.025366
887.808400 0.002932
888.047800 -0.104770
888.287200 0.041361
888.526600 0.034465
888.766000 -0.217484
889.005400 0.019154
889.244800 0.127694
889.484300 -0.029494
889.723700 0.049944
889.963200 0.130444
890.202600 0.182694
890.442100 0.078912
890.681600 0.022695
890.921100 -0.001004
891.160600 0.139210
891.400100 0.124825
891.639600 0.100578
891.879100 -0.012733
892.118600 0.110162
892.358100 -0.066375
892.597700 0.033538
892.837200 0.065156
893.076800 -0.059140
893.316300 0.014856
893.555900 0.191447
893.795500 0.024525
894.035100 -0.012114
894.274700 -0.012502
894.514300 -0.039532
894.753900 -0.074265
894.993500 0.127980
895.233100 -0.053924
895.472700 0.021880
895.712400 -0.007919
895.952000 -0.012156
896.191700 0.023626
896.431400 0.125585
896.671000 0.179402
896.910700 0.096989
897.150400 -0.021100
897.390100 0.070167
897.629800 -0.073464
897.869500 -0.043094
898.109200 0.024929
898.348900 0.020938
898.588700 0.075717
898.828400 0.031959
899.068200 0.107949
899.307900 0.011519
899.547700 0.000911
899.787500 0.119730
900.027200 -0.106080
900.267000 0.091685
900.506800 0.127493
900.746600 -0.048441
900.986400 -0.093192
901.226300 0.084610
901.466100 -0.081114
901.705900 0.097960
901.945800 -0.043743
902.185600 0.050690
902.425500 -0.088345
902.665400 -0.114999
902.905200 0.176501
903.145100 0.011027
903.385000 -0.049145
903.624900 0.090361
903.864800 -0.097456
904.104700 0.096435
904.344600 -0.014020
904.584600 -0.165224
904.824500 0.151940
905.064400 0.133072
905.304400 0.074521
905.544400 0.030736
905.784300 -0.043859
906.024300 0.183066
906.264300 -0.132293
906.504300 0.019492
906.744300 0.007154
906.984300 0.079181
907.224300 0.086437
907.464300 -0.026258
907.704300 0.092867
907.944400 -0.056647
908.184400 -0.117563
908.424500 0.045970
908.664500 -0.060725
908.904600 -0.033962
909.144700 0.040455
909.384700 0.250562
909.624800 0.015930
909.864900 0.047051
910.105000 -0.129344
910.345200 -0.192125
910.585300 0.079328
910.825400 0.066120
911.065500 0.235466
911.305700 0.236163
911.545800 0.127228
911.786000 0.028029
912.026200 -0.130104
912.266300 0.306510
912.506500 -0.089959
912.746700 -0.070660
912.986900 -0.055549
913.227100 0.229309
913.467300 0.223474
913.707500 -0.058062
913.947800 0.112075
914.188000 0.205370
914.428300 -0.004009
914.668500 0.104418
914.908800 0.095750
915.149000 0.000130
915.389300 0.256006
915.629600 0.106391
915.869900 -0.002403
916.110200 0.074382
916.350500 0.098493
916.590800 0.024830
916.831100 0.068133
917.071400 -0.013587
917.311800 0.072500
917.552100 -0.002873
917.792500 -0.145515
918.032800 0.047540
918.273200 0.157019
918.513600 0.029589
918.753900 0.050361
918.994300 0.123865
919.234700 0.357743
919.475100 0.018796
919.715500 -0.036293
919.956000 0.131717
920.196400 -0.057992
920.436800 0.042353
920.677300 0.195327
920.917700 -0.064607
921.158200 -0.045270
921.398600 0.036121
921.639100 0.081504
921.879600 -0.224171
922.120100 -0.031579
922.360600 0.082319
922.601100 0.027636
922.841600 0.017834
923.082100 -0.034385
923.322600 -0.136950
923.563100 0.034168
923.803700 0.086754
924.044200 -0.095214
924.284800 -0.006924
924.525400 0.134812
924.765900 0.019396
925.006500 -0.177979
925.247100 0.026357
925.487700 -0.137897
925.728300 0.131635
925.968900 0.155018
926.209500 0.218375
926.450100 -0.044079
926.690800 0.242843
926.931400 -0.243321
927.172000 -0.118546
927.412700 0.029180
927.653300 0.152631
927.894000 -0.064686
928.134700 0.115137
928.375400 -0.090055
928.616100 0.060628
928.856800 0.101018
929.097500 -0.113097
929.338200 0.143534
929.578900 0.301968
929.819600 -0.100435
930.060400 -0.077040
930.301100 0.145362
930.541900 -0.048718
930.782600 0.094778
931.023400 -0.156121
931.264200 0.157536
931.504900 0.142474
931.745700 0.037642
931.986500 -0.084176
932.227300 0.104344
932.468100 0.256948
932.708900 0.024452
932.949800 0.230030
933.190600 -0.114510
933.431400 0.109612
933.672300 -0.053142
933.913100 -0.011646
934.154000 0.076566
934.394900 -0.056532
934.635800 -0.070173
934.876600 0.043329
935.117500 0.125107
935.358400 0.176765
935.599300 0.098506
935.840300 -0.116482
936.081200 0.346207
936.322100 -0.094702
936.563000 0.062408
936.804000 3.422261
937.044900 0.080867
937.285900 -0.131154
937.526900 0.367037
937.767800 0.243857
938.008800 -0.251098
938.249800 0.197922
938.490800 0.057508
938.731800 0.024412
938.972800 0.341607
939.213800 0.015508
939.454900 0.078995
939.695900 0.144620
939.936900 0.058263
940.178000 -0.082564
940.419000 -0.502684
940.660100 0.203085
940.901200 0.172831
941.142200 2.913814
941.383300 0.224125
941.624400 -0.162000
941.865500 0.435421
942.106600 0.109078
942.347700 -0.246167
942.588900 0.456279
942.830000 -0.168161
943.071100 -0.396770
943.312300 0.081446
943.553400 0.431245
943.794600 0.184511
944.035700 0.810530
944.276900 0.372956
944.518100 0.412964
944.759300 0.657641
945.000500 -0.468857
945.241700 0.166710
945.482900 0.218540
945.724100 0.661998
945.965300 0.508836
946.206600 0.259291
946.447800 0.140608
946.689100 0.308300
946.930300 -0.535371
947.171600 0.464865
947.412800 0.259744
947.654100 0.122098
947.895400 0.317813
948.136700 0.511020
948.378000 -0.020179
948.619300 3.257918
948.860600 -0.079103
949.101900 0.409988
949.343300 -0.122351
949.584600 0.195946
949.825900 -0.115541
950.067300 3.389875
950.308600 -0.306051
950.550000 0.157105
950.791400 0.319182
951.032700 -0.529695
951.274100 0.269783
951.515500 0.121269
951.756900 -0.095472
951.998300 -0.069270
952.239800 1.752378
952.481200 0.098165
952.722600 0.514993
952.964000 0.037897
953.205500 0.105311
953.446900 0.236393
953.688400 -0.022856
953.929900 1.149159
954.171300 -1.314795
954.412800 0.187665
954.654300 0.281859
954.895800 0.048106
955.137300 2.840106
955.378800 -0.124603
955.620300 2.896526
955.861800 -0.190631
956.103400 0.196200
956.344900 1.305798
956.586500 -0.233587
956.828000 0.325398
957.069600 0.857556
957.311100 0.033307
957.552700 0.673037
957.794300 -0.189077
958.035900 0.123268
958.277500 -0.301677
958.519100 1.130171
958.760700 0.076877
959.002300 -0.312025
959.243900 0.171306
959.485600 0.018187
959.727200 0.094989
959.968800 2.918555
960.210500 0.811727
960.452200 0.058978
960.693800 -0.429421
960.935500 -3.070038
961.177200 -0.025665
961.418900 -0.247155
961.660600 0.190706
961.902300 0.713743
962.144000 -0.573970
962.385700 2.791691
962.627400 0.434942
962.869200 0.002494
963.110900 -0.340501
963.352700 0.073693
963.594400 3.215373
963.836200 -0.021210
964.077900 0.816020
964.319700 0.075780
964.561500 0.131293
964.803300 0.521201
965.045100 0.286045
965.286900 0.092721
965.528700 2.975432
965.770500 -0.316860
966.012300 -0.084321
966.254200 0.009935
966.496000 -0.161725
966.737900 3.206826
966.979700 3.209783
967.221600 -0.018085
967.463400 -0.092452
967.705300 0.066641
967.947200 -0.186366
968.189100 -0.597004
968.431000 -0.053985
968.672900 -0.209708
968.914800 -0.167361
969.156700 2.745075
969.398700 0.057677
969.640600 -0.719218
969.882500 0.163611
970.124500 -0.221386
970.366400 -0.113531
970.608400 0.005144
970.850400 0.823627
971.092300 -0.346116
971.334300 2.990339
971.576300 0.172279
971.818300 0.148611
972.060300 0.042182
972.302300 0.133318
972.544300 2.745075
972.786400 0.719722
973.028400 0.213390
973.270400 -0.013544
973.512500 3.082426
973.754500 0.056642
973.996600 -0.172856
974.238700 -0.111332
974.480700 0.001829
974.722800 0.780499
974.964900 0.241690
975.207000 0.695545
975.449100 -0.360514
975.691200 0.897666
975.933300 -0.274701
976.175500 0.000000
976.417600 -0.063458
976.659700 3.082785
976.901900 0.255190
977.144000 0.130362
977.386200 -0.188918
977.628300 0.178992
977.870500 3.139249
978.112700 -0.293337
978.354900 -0.520252
978.597100 -0.124479
978.839300 0.113755
979.081500 -0.131713
979.323700 0.000000
979.565900 2.663701
979.808200 3.265290
980.050400 3.226342
980.292600 0.291762
980.534900 0.750386
980.777100 -0.106455
981.019400 2.752816
981.261700 3.201124
981.504000 0.472094
981.746200 -0.888901
981.988500 -0.115141
982.230800 -0.232324
982.473100 0.766056
982.715500 0.955559
982.957800 -0.165390
983.200100 2.990339
983.442400 -0.228189
983.684800 2.799341
983.927100 0.894786
984.169500 -0.052398
984.411800 1.016056
984.654200 2.760422
984.896600 3.082785
985.139000 -1.724276
985.381400 0.208394
985.623800 0.955559
985.866200 0.108233
986.108600 -2.079181
986.351000 3.089905
986.593400 0.202153
986.835800 0.042332
987.078300 2.682145
987.320700 -0.088867
987.563200 1.156636
987.805600 2.414973
988.048100 0.177639
988.290600 -0.268961
988.533100 -2.922725
988.775600 2.980458
989.018000 0.724342
989.260500 3.086360
989.503100 -3.252368
989.745600 -0.672723
989.988100 0.000000
990.230600 3.097604
990.473200 1.391439
990.715700 0.228295
990.958200 2.523746
991.200800 -0.021338
991.443400 -2.944483
991.685900 2.710117
991.928500 -2.149219
992.171100 -0.680487
992.413700 0.734871
992.656300 -0.064159
992.898900 -0.234083
993.141500 0.868942
993.384100 0.630668
993.626700 3.093772
993.869400 2.760422
994.112000 -0.301369
994.354700 0.673883
994.597300 0.538833
994.840000 0.000000
995.082600 -0.597724
995.325300 2.269513
995.568000 -0.335574
995.810700 -0.856972
996.053400 2.866287
996.296100 0.617854
996.538800 0.204120
996.781500 0.016109
997.024200 2.049218
997.267000 -0.499678
997.509700 0.263948
997.752400 2.768638
997.995200 3.051153
998.237900 2.701568
998.480700 0.580791
998.723500 -2.595496
998.966200 -0.064607
999.209000 -2.426511
999.451800 -0.416395
999.694600 0.004940
999.937400 2.318063
1000.180200 2.913284
1000.423000 0.334991
1000.665900 0.312452
1000.908700 2.396199
1001.151500 -0.394019
1001.394400 0.996887
1001.637200 0.201662
1001.880100 0.778151
1002.123000 2.840106
1002.365800 2.599883
1002.608700 0.095484
1002.851600 2.913284
1003.094500 -0.035200
1003.337400 -0.811900
1003.580300 0.000000
1003.823200 2.414973
1004.066100 2.945961
1004.309100 2.719331
1004.552000 1.012965
1004.794900 -0.448654
1005.037900 0.609540
1005.280800 0.496550
1005.523800 0.331685
1005.766700 0.392968
1006.009700 3.047275
1006.252700 0.000000
1006.495700 -0.207862
1006.738700 -2.781755
1006.981700 3.136086
1007.224700 -0.514400
1007.467700 -0.630886
1007.710700 2.610660
1007.953800 0.162051
1008.196800 2.736397
1008.439800 3.195346
1008.682900 0.805474
1008.925900 3.097604
1009.169000 2.884229
1009.412100 -3.252368
1009.655100 2.008600
1009.898200 -0.020173
1010.141300 2.432969
1010.384400 -0.196410
1010.627500 2.550228
1010.870600 -0.014595
1011.113700 0.335851
1011.356800 0.224705
1011.600000 1.591065
1011.843100 1.123968
1012.086300 0.000000
1012.329400 -0.037071
1012.572600 -3.286681
1012.815700 2.783904
1013.058900 -2.766413
1013.302100 0.924710
1013.545200 0.226947
1013.788400 0.256357
1014.031600 0.000000
1014.274800 3.075182
1014.518000 0.522480
1014.761300 0.559488
1015.004500 0.000000
1015.247700 0.322468
1015.490900 -2.390935
1015.734200 0.778902
1015.977400 -0.494234
1016.220700 0.000000
1016.464000 0.426578
1016.707200 -0.784180
1016.950500 -0.239650
1017.193800 2.907949
1017.437100 -0.467091
1017.680400 0.234918
1017.923700 0.584956
1018.167000 0.161687
1018.410300 2.643453
1018.653600 0.561631
1018.896900 0.322633
1019.140300 0.639260
1019.383600 0.271823
1019.627000 2.950851
1019.870300 0.113200
1020.113700 3.183555
1020.357100 2.575188
1020.600400 -0.200532
1020.843800 3.090258
1021.087200 0.627213
1021.330600 -2.781755
1021.574000 0.086699
1021.817400 -1.544068
1022.060800 -3.020775
1022.304200 0.000000
1022.547700 0.037492
1022.791100 2.432969
1023.034500 2.812913
