# Wavelength	Absorbance
197.780200 2.878522
197.984200 0.787375
198.188200 0.303487
198.392200 0.843296
198.596300 0.145222
198.800300 -0.632302
199.004400 -0.010864
199.208500 0.681596
199.412600 -0.163317
199.616800 2.768638
199.820900 -0.686905
200.025100 2.877947
200.229200 0.343319
200.433400 0.633852
200.637600 -0.101262
200.841800 2.902003
201.046100 0.162263
201.250300 3.142702
201.454600 3.220892
201.658900 3.051153
201.863100 0.754208
202.067400 0.033695
202.271800 0.143407
202.476100 2.896526
202.680500 0.537335
202.884800 0.445164
203.089200 0.849937
203.293600 2.745075
203.498000 0.327823
203.702400 -0.483084
203.906900 0.286944
204.111300 -1.414973
204.315800 -0.061931
204.520300 0.229811
204.724800 2.587711
204.929300 2.396199
205.133800 0.463344
205.338400 -0.026136
205.543000 0.692867
205.747500 2.682145
205.952100 -0.168780
206.156700 3.034628
206.361400 -3.260310
206.566000 -0.658816
206.770600 0.362702
206.975300 -0.802791
207.180000 -2.197477
207.384700 2.587711
207.589400 -3.218010
207.794100 2.480007
207.998900 2.622214
208.203600 0.268627
208.408400 -0.230039
208.613200 -0.109217
208.818000 -0.039750
209.022800 2.414973
209.227600 -0.513850
209.432500 -0.189309
209.637300 -0.176602
209.842200 -0.624088
210.047100 -0.235577
210.252000 2.053078
210.456900 0.845811
210.661800 0.383280
210.866800 0.285284
211.071800 3.104487
211.276700 -0.315547
211.481700 2.736397
211.686700 2.632457
211.891800 2.480007
212.096800 0.375789
212.301800 0.382565
212.506900 1.089209
212.712000 2.965672
212.917100 0.183767
213.122200 2.866287
213.327300 1.382043
213.532500 0.000000
213.737600 -0.022748
213.942800 1.447158
214.148000 0.001016
214.353200 0.000000
214.558400 0.542869
214.763600 3.265290
214.968900 0.136858
215.174100 0.657329
215.379400 0.000000
215.584700 0.238429
215.790000 0.150030
215.995300 -0.284286
216.200700 2.806180
216.406000 2.902003
216.611400 -0.064535
216.816800 2.833784
217.022200 0.174018
217.227600 3.086360
217.433000 2.536558
217.638400 3.047275
217.843900 -0.424778
218.049400 0.000000
218.254800 0.035531
218.460300 0.175453
218.665900 3.186674
218.871400 0.254514
219.076900 0.094916
219.282500 0.547646
219.488100 -0.098232
219.693600 2.783904
219.899200 0.327623
220.104900 0.547522
220.310500 -0.532719
220.516100 -3.132260
220.721800 -0.232331
220.927500 0.418899
221.133200 0.082459
221.338900 -0.298848
221.544600 -0.291979
221.750300 0.770255
221.956100 -0.204187
222.161800 2.338456
222.367600 -0.198315
222.573400 -0.482029
222.779200 -2.775246
222.985000 -2.805501
223.190900 0.171114
223.396700 -0.285697
223.602600 -0.848124
223.808500 0.009669
224.014400 -0.454225
224.220300 0.427651
224.426200 -0.113816
224.632200 0.097113
224.838100 0.115175
225.044100 -0.326791
225.250100 2.550228
225.456100 2.653213
225.662100 2.632457
225.868100 -0.247644
226.074200 -0.296962
226.280200 0.000000
226.486300 -0.311709
226.692400 -2.859138
226.898500 0.281859
227.104600 0.340224
227.310700 0.252796
227.516900 2.833784
227.723000 -0.150644
227.929200 3.252853
228.135400 3.074816
228.341600 1.207241
228.547800 0.818192
228.754100 0.418430
228.960300 -0.587634
229.166600 0.000000
229.372900 -0.371946
229.579100 0.204481
229.785500 2.791691
229.991800 0.845098
230.198100 -0.316550
230.404500 1.963788
230.610800 3.003891
230.817200 0.000000
231.023600 2.191451
231.230000 2.683047
231.436400 0.777540
231.642900 -0.041166
231.849300 -0.463582
232.055800 2.008600
232.262300 0.309776
232.468800 -1.030408
232.675300 -0.193855
232.881800 2.599883
233.088400 0.297917
233.294900 2.550228
233.501500 -0.148763
233.708100 -2.374748
233.914700 -0.371463
234.121300 0.000000
234.327900 2.776701
234.534600 -0.151002
234.741300 0.322358
234.947900 -0.280637
235.154600 1.991226
235.361300 0.709244
235.568000 0.150443
235.774800 2.662758
235.981500 0.001191
236.188300 -3.025715
236.395100 -0.090340
236.601800 -2.413300
236.808700 -0.309267
237.015500 0.289323
237.222300 -0.197068
237.429200 0.335871
237.636000 0.183831
237.842900 1.851258
238.049800 -0.140251
238.256700 0.412663
238.463600 3.063333
238.670600 0.030793
238.877500 3.161967
239.084500 -3.342620
239.291500 0.107747
239.498500 -0.899995
239.705500 -0.326894
239.912500 1.845098
240.119500 -1.260169
240.326600 -1.069978
240.533700 -2.447158
240.740700 0.113320
240.947800 0.071784
241.154900 0.684436
241.362100 0.178808
241.569200 1.217484
241.776400 -0.035097
241.983500 0.829661
242.190700 -0.077830
242.397900 0.000000
242.605100 2.537819
242.812400 -0.362654
243.019600 3.242293
243.226900 0.262959
243.434100 0.867961
243.641400 -0.182158
243.848700 0.638089
244.056000 -3.017033
244.263400 2.653213
244.470700 0.236448
244.678100 0.635268
244.885400 -0.288796
245.092800 2.682145
245.300200 -0.120632
245.507600 3.330008
245.715100 -0.148641
245.922500 0.578966
246.130000 -1.277407
246.337500 0.157839
246.544900 2.396199
246.752400 0.671778
246.960000 -0.012004
247.167500 0.254902
247.375000 -2.630428
247.582600 0.282206
247.790200 1.845098
247.997800 0.334634
248.205400 0.457425
248.413000 0.582704
248.620600 0.888692
248.828300 1.149639
249.035900 0.211056
249.243600 0.558478
249.451300 0.947942
249.659000 0.193872
249.866700 1.213960
250.074500 0.067678
250.282200 1.350641
250.490000 3.021603
250.697800 0.512502
250.905600 -0.480464
251.113400 2.929930
251.321200 -0.280637
251.529000 2.008600
251.736900 0.992845
251.944700 0.739516
252.152600 0.309586
252.360500 -0.123030
252.568400 -0.607455
252.776300 -0.668759
252.984300 0.293477
253.192200 -0.185715
253.400200 0.399709
253.608200 0.038782
253.816200 0.215697
254.024200 -0.135435
254.232200 0.124939
254.440200 -1.672098
254.648300 -0.256338
254.856400 1.286595
255.064400 2.775974
255.272500 0.238466
255.480600 0.164810
255.688800 -2.950365
255.896900 0.146533
256.105100 0.334517
256.313200 -0.006851
256.521400 2.827369
256.729600 0.045712
256.937800 0.519188
257.146000 -0.230257
257.354300 -0.698970
257.562500 0.696264
257.770800 0.000000
257.979100 0.435678
258.187400 -0.240666
258.395700 1.128543
258.604000 3.034628
258.812400 0.072741
259.020700 -0.174726
259.229100 -0.276926
259.437500 2.975891
259.645900 3.198382
259.854300 -0.164054
260.062700 1.286632
260.271100 -0.069905
260.479600 -0.091605
260.688100 -0.549306
260.896500 0.263403
261.105000 2.089905
261.313500 0.142610
261.522100 0.182231
261.730600 0.170714
261.939200 0.193712
262.147700 0.317797
262.356300 -0.263099
262.564900 -0.423912
262.773500 -0.224848
262.982200 0.268963
263.190800 0.000000
263.399500 3.206826
263.608100 3.039017
263.816800 3.034628
264.025500 0.021451
264.234200 -1.075902
264.442900 2.053078
264.651700 0.425506
264.860400 0.215600
265.069200 -0.119989
265.278000 0.281069
265.486800 2.276921
265.695600 2.450249
265.904400 0.079279
266.113300 -0.474568
266.322100 0.616175
266.531000 2.294466
266.739900 -0.357780
266.948800 0.399079
267.157700 -0.044624
267.366600 3.055378
267.575500 0.291485
267.784500 0.071662
267.993500 2.994757
268.202400 0.523654
268.411400 -0.012625
268.620500 -0.097962
268.829500 0.730651
269.038500 2.123852
269.247600 0.838270
269.456600 2.008600
269.665700 0.036253
269.874800 0.198141
270.083900 0.371611
270.293100 -2.819544
270.502200 -0.130319
270.711400 2.127105
270.920500 -0.061638
271.129700 2.985426
271.338900 0.197056
271.548100 2.691965
271.757300 -0.324682
271.966600 0.044084
272.175800 0.625363
272.385100 2.433610
272.594400 -0.103639
272.803700 -0.082884
273.013000 2.799341
273.222300 2.994757
273.431600 -0.018026
273.641000 0.500513
273.850400 -0.182093
274.059700 0.186293
274.269100 0.239168
274.478500 -0.099915
274.688000 0.440045
274.897400 2.866287
275.106900 -1.268074
275.316300 0.183805
275.525800 3.067071
275.735300 -2.833147
275.944800 -0.042502
276.154300 -0.469502
276.363900 0.052366
276.573400 2.840106
276.783000 -0.033023
276.992600 0.041454
277.202200 0.214128
277.411800 -0.446516
277.621400 -0.077960
277.831000 1.279746
278.040700 0.843083
278.250300 2.820201
278.460000 0.890184
278.669700 0.935135
278.879400 0.058221
279.089100 -0.127579
279.298900 0.058357
279.508600 3.025715
279.718400 0.095522
279.928100 -2.833147
280.137900 3.215373
280.347700 2.632457
280.557600 0.234219
280.767400 3.039017
280.977200 -0.292791
281.187100 -1.838849
281.397000 0.149887
281.606900 -2.652246
281.816800 0.172285
282.026700 -0.488402
282.236600 -0.248267
282.446600 0.005725
282.656500 -3.329805
282.866500 2.791691
283.076500 2.338456
283.286500 0.388550
283.496500 0.090582
283.706500 2.907411
283.916600 2.866287
284.126600 0.146128
284.336700 0.313895
284.546800 2.587711
284.756900 -0.169354
284.967000 0.483226
285.177100 0.564403
285.387300 0.000000
285.597400 -0.017194
285.807600 -0.744468
286.017800 3.294246
286.228000 -2.819544
286.438200 0.381149
286.648400 2.940516
286.858700 0.505622
287.068900 2.760422
287.279200 -0.348114
287.489500 2.414973
287.699800 3.158965
287.910100 0.500602
288.120400 0.272029
288.330800 0.035417
288.541100 0.791853
288.751500 2.217484
288.961900 2.813581
289.172300 -2.805501
289.382700 3.074816
289.593100 -0.269986
289.803500 -2.805501
290.014000 2.980458
290.224500 -0.038073
290.434900 -2.630428
290.645400 -0.099758
290.855900 2.653213
291.066500 3.146128
291.277000 2.744293
291.487500 0.008970
291.698100 -0.420571
291.908700 -0.222645
292.119300 3.059185
292.329900 3.042969
292.540500 2.728354
292.751100 -0.189339
292.961800 -3.034227
293.172400 0.444707
293.383100 -3.008174
293.593800 2.994757
293.804500 -0.350793
294.015200 0.690423
294.226000 -3.104487
294.436700 -0.326141
294.647500 2.866287
294.858200 3.074816
295.069000 -0.049109
295.279800 -0.533816
295.490600 -2.585461
295.701500 0.387087
295.912300 -0.211240
296.123200 0.188922
296.334000 0.674008
296.544900 3.316809
296.755800 -0.008021
296.966700 0.162886
297.177700 2.945961
297.388600 2.935003
297.599500 -0.937313
297.810500 3.090258
298.021500 0.253797
298.232500 0.865605
298.443500 -0.148653
298.654500 -0.005733
298.865600 0.067001
299.076600 2.622214
299.287700 0.000000
299.498800 0.055617
299.709900 0.316542
299.921000 0.235822
300.132100 0.233119
300.343200 0.025674
300.554400 0.183917
300.765500 -0.075721
300.976700 0.000000
301.187900 3.104487
301.399100 0.023296
301.610300 0.010772
301.821500 0.605071
302.032800 0.569193
302.244100 -0.025125
302.455300 -0.091605
302.666600 3.063333
302.877900 0.354769
303.089200 2.357935
303.300600 0.466273
303.511900 0.462956
303.723300 -0.005140
303.934600 2.884795
304.146000 -2.293836
304.357400 -0.773857
304.568800 -0.392594
304.780300 0.713722
304.991700 -0.232416
305.203100 -0.471668
305.414600 3.198382
305.626100 2.294466
305.837600 0.510042
306.049100 0.730651
306.260600 0.000386
306.472200 -0.262343
306.683700 0.086822
306.895300 1.160214
307.106900 -0.052932
307.318400 0.139206
307.530100 0.075339
307.741700 0.079453
307.953300 0.460663
308.165000 0.000000
308.376600 3.265290
308.588300 3.242293
308.800000 -0.084368
309.011700 3.215109
309.223400 3.125806
309.435100 -0.309419
309.646900 0.254645
309.858600 3.054996
310.070400 0.094818
310.282200 -1.060698
310.494000 0.481629
310.705800 0.169508
310.917600 0.416847
311.129500 -0.078448
311.341300 0.476902
311.553200 1.341564
311.765100 0.113534
311.977000 3.142702
312.188900 0.123848
312.400800 3.030600
312.612700 0.179690
312.824700 0.532367
313.036600 3.158965
313.248600 3.332034
313.460600 0.665112
313.672600 3.275081
313.884600 0.135995
314.096700 0.121317
314.308700 0.433386
314.520800 0.920137
314.732800 0.377062
314.944900 0.585027
315.157000 1.242285
315.369200 3.082785
315.581300 3.082785
315.793400 2.653213
316.005600 0.236892
316.217700 3.168203
316.429900 0.372886
316.642100 1.047629
316.854300 0.274228
317.066600 3.463445
317.278800 0.726058
317.491100 0.902254
317.703300 0.356256
317.915600 3.296446
318.127900 3.445760
318.340200 2.398634
318.552500 0.054422
318.764900 3.139249
318.977200 0.876491
319.189600 3.030195
319.401900 0.866222
319.614300 0.219303
319.826700 0.402003
320.039200 1.024432
320.251600 0.033199
320.464000 0.775158
320.676500 0.182863
320.889000 -0.747071
321.101400 1.164197
321.313900 3.310268
321.526500 0.272028
321.739000 0.272090
321.951500 0.390476
322.164100 1.717606
322.376600 0.417871
322.589200 0.280433
322.801800 1.488918
323.014400 0.669890
323.227000 1.939903
323.439700 0.728163
323.652300 3.471292
323.865000 3.374748
324.077700 0.674447
324.290400 3.310268
324.503100 0.603333
324.715800 0.143882
324.928500 3.425697
325.141200 1.338851
325.354000 3.583765
325.566800 0.882019
325.779600 0.591971
325.992400 0.162421
326.205200 3.542576
326.418000 0.602789
326.630800 0.641476
326.843700 3.659250
327.056600 0.184974
327.269400 3.416973
327.482300 0.879743
327.695200 3.385964
327.908200 0.313326
328.121100 0.594791
328.334000 0.734582
328.547000 3.636688
328.760000 3.502700
328.973000 3.578983
329.186000 1.379619
329.399000 0.403340
329.612000 1.268511
329.825100 1.006587
330.038100 0.395600
330.251200 1.618629
330.464300 0.532816
330.677400 0.716929
330.890500 0.580987
331.103600 0.642807
331.316700 0.392038
331.529900 1.006051
331.743100 0.280467
331.956200 0.391126
332.169400 1.287802
332.382600 3.520876
332.595900 0.304755
332.809100 0.596592
333.022300 0.805321
333.235600 3.633468
333.448900 0.477987
333.662200 3.609381
333.875500 0.819994
334.088800 3.518251
334.302100 1.619947
334.515400 3.647089
334.728800 3.641871
334.942200 0.676591
335.155500 0.385172
335.368900 0.604576
335.582300 0.850594
335.795800 1.838119
336.009200 1.208529
336.222700 1.711995
336.436100 0.965590
336.649600 0.650442
336.863100 0.736035
337.076600 3.787035
337.290100 3.741388
337.503600 0.838951
337.717200 3.759290
337.930700 3.722716
338.144300 0.418178
338.357900 0.850789
338.571500 3.715669
338.785100 0.644400
338.998700 3.739731
339.212400 3.815312
339.426000 0.985417
339.639700 3.667266
339.853300 0.932447
340.067000 0.791023
340.280700 3.765594
340.494500 3.790074
340.708200 0.785072
340.921900 0.836173
341.135700 0.972159
341.349500 1.040185
341.563300 0.841809
341.777100 3.818094
341.990900 3.831166
342.204700 0.876024
342.418500 0.810426
342.632400 1.540426
342.846300 1.253703
343.060100 0.703573
343.274000 0.531011
343.487900 3.871748
343.701900 0.577175
343.915800 3.793022
344.129700 1.098365
344.343700 3.778006
344.557700 0.747895
344.771700 3.809694
344.985700 3.914502
345.199700 0.884119
345.413700 1.954671
345.627700 1.542783
345.841800 0.441415
346.055900 0.771697
346.269900 0.860470
346.484000 3.898615
346.698100 0.743259
346.912300 1.060055
347.126400 3.906012
347.340600 3.899164
347.554700 1.642715
347.768900 3.886321
347.983100 0.875359
348.197300 3.889246
348.411500 3.880871
348.625700 0.741279
348.840000 0.564564
349.054200 0.936635
349.268500 0.682676
349.482800 1.178741
349.697100 0.824377
349.911400 3.877832
350.125700 0.876344
350.340000 3.937869
350.554400 0.833741
350.768700 3.912806
350.983100 3.218850
351.197500 3.889246
351.411900 0.933671
351.626300 3.954918
351.840700 1.012667
352.055200 3.931966
352.269600 3.959471
352.484100 1.000487
352.698600 1.039707
352.913100 3.896857
353.127600 1.173804
353.342100 3.948266
353.556600 3.994713
353.771200 1.047064
353.985800 0.832044
354.200300 1.976656
354.414900 3.981093
354.629500 3.907143
354.844100 0.600698
355.058800 0.982429
355.273400 1.262099
355.488100 3.989138
355.702700 3.292478
355.917400 2.100071
356.132100 1.075509
356.346800 3.982000
356.561500 1.277637
356.776300 1.439033
356.991000 1.063873
357.205800 3.987264
357.420600 1.168658
357.635300 3.283075
357.850100 1.228332
358.065000 1.807243
358.279800 1.350121
358.494600 3.959995
358.709500 1.321798
358.924300 0.995796
359.139200 1.143793
359.354100 3.988202
359.569000 0.656705
359.783900 0.816123
359.998900 1.197796
360.213800 1.276437
360.428800 1.887926
360.643800 3.982497
360.858700 1.054073
361.073700 1.665300
361.288800 1.667394
361.503800 4.026452
361.718800 0.788370
361.933900 1.824632
362.148900 0.821797
362.364000 1.161566
362.579100 0.823295
362.794200 1.628238
363.009300 4.072250
363.224500 4.031206
363.439600 4.024280
363.654800 1.036294
363.869900 1.982841
364.085100 4.019947
364.300300 0.993648
364.515500 4.049102
364.730800 2.223996
364.946000 1.066158
365.161200 0.951068
365.376500 4.086360
365.591800 1.020577
365.807100 1.200859
366.022400 1.106083
366.237700 4.078022
366.453000 2.164320
366.668400 1.256228
366.883700 2.648660
367.099100 0.966024
367.314500 1.077794
367.529900 1.603675
367.745300 4.114678
367.960700 1.503914
368.176100 1.142706
368.391600 0.857078
368.607000 4.134305
368.822500 1.086185
369.038000 1.303836
369.253500 1.491879
369.469000 1.710421
369.684500 4.136974
369.900100 0.911237
370.115600 1.308258
370.331200 1.238709
370.546800 4.104009
370.762400 1.105550
370.978000 1.867440
371.193600 4.104351
371.409200 4.124798
371.624900 1.976017
371.840500 4.181129
372.056200 0.917107
372.271900 2.055805
372.487600 1.890149
372.703300 1.544455
372.919000 1.159807
373.134800 1.952979
373.350500 0.868345
373.566300 4.154637
373.782000 1.327561
373.997800 1.722340
374.213600 4.167937
374.429400 4.167613
374.645300 1.162331
374.861100 0.873292
375.077000 0.991884
375.292800 1.647035
375.508700 2.540143
375.724600 2.371737
375.940500 4.218404
376.156400 1.552358
376.372400 1.002818
376.588300 1.884213
376.804300 1.236025
377.020300 4.247581
377.236200 4.258326
377.452200 1.187390
377.668200 1.653094
377.884300 1.551088
378.100300 1.003334
378.316400 1.217429
378.532400 1.300681
378.748500 4.301356
378.964600 1.129183
379.180700 1.548726
379.396800 4.318189
379.612900 4.277861
379.829100 1.564884
380.045200 1.559033
380.261400 1.432330
380.477600 1.200490
380.693800 1.535792
380.910000 1.176190
381.126200 1.204748
381.342400 4.319959
381.558700 1.063456
381.774900 1.359188
381.991200 2.183744
382.207500 4.314668
382.423800 1.220458
382.640100 4.341553
382.856400 1.928036
383.072800 1.514001
383.289100 4.351042
383.505500 4.335458
383.721900 2.305119
383.938200 1.964723
384.154600 1.319384
384.371100 1.829923
384.587500 1.340617
384.803900 1.657620
385.020400 1.980761
385.236800 1.230851
385.453300 1.269821
385.669800 4.340702
385.886300 1.278319
386.102800 4.360120
386.319400 1.202223
386.535900 4.371972
386.752500 1.249647
386.969000 1.263186
387.185600 1.138628
387.402200 1.333511
387.618800 1.374857
387.835500 1.329658
388.052100 1.383493
388.268700 1.176740
388.485400 4.402760
388.702100 2.576057
388.918800 1.711300
389.135500 1.913188
389.352200 1.987083
389.568900 1.358710
389.785600 1.210517
390.002400 1.239688
390.219200 1.290950
390.435900 1.635582
390.652700 1.579194
390.869500 1.294804
391.086300 1.183934
391.303200 1.422642
391.520000 1.077566
391.736900 1.714189
391.953700 1.469223
392.170600 1.792782
392.387500 1.457402
392.604400 1.447344
392.821300 1.012708
393.038300 1.713079
393.255200 1.110485
393.472200 1.230580
393.689100 1.014859
393.906100 1.128742
394.123100 1.036678
394.340100 0.893338
394.557200 1.278857
394.774200 1.078496
394.991200 1.179646
395.208300 1.423974
395.425400 1.174662
395.642500 0.945424
395.859600 1.209062
396.076700 1.329059
396.293800 1.064009
396.510900 0.991591
396.728100 1.011262
396.945300 1.028175
397.162400 0.936021
397.379600 0.990487
397.596800 0.881865
397.814000 1.027664
398.031300 1.029886
398.248500 0.961198
398.465800 0.872738
398.683000 0.828474
398.900300 0.914954
399.117600 0.993632
399.334900 1.008117
399.552200 0.884740
399.769600 0.922557
399.986900 0.805616
400.204300 0.938452
400.421600 1.156272
400.639000 0.849712
400.856400 1.024731
401.073800 0.784571
401.291200 0.835651
401.508700 0.839417
401.726100 0.769954
401.943600 0.742940
402.161000 0.815906
402.378500 0.774529
402.596000 0.968441
402.813500 0.842685
403.031000 0.753824
403.248600 0.770639
403.466100 0.706334
403.683700 0.774889
403.901300 0.692758
404.118900 0.666872
404.336500 0.937747
404.554100 0.806322
404.771700 0.612344
404.989300 0.740706
405.207000 0.693453
405.424600 0.708107
405.642300 0.744009
405.860000 0.670253
406.077700 0.736839
406.295400 0.671978
406.513100 0.740968
406.730900 0.706870
406.948600 0.717455
407.166400 0.730974
407.384200 0.703753
407.602000 0.663559
407.819800 0.566298
408.037600 0.637754
408.255400 0.630437
408.473300 0.556411
408.691100 0.663348
408.909000 0.601563
409.126900 0.639668
409.344800 0.657201
409.562700 0.536805
409.780600 0.633518
409.998500 0.672016
410.216500 0.656096
410.434400 0.591730
410.652400 0.577412
410.870400 0.558631
411.088400 0.613805
411.306400 0.584927
411.524400 0.524822
411.742400 0.475500
411.960500 0.557802
412.178500 0.512655
412.396600 0.508544
412.614700 0.570781
412.832800 0.556876
413.050900 0.506226
413.269000 0.581653
413.487100 0.595659
413.705300 0.564909
413.923400 0.557293
414.141600 0.496498
414.359800 0.537471
414.578000 0.556038
414.796200 0.517082
415.014400 0.509368
415.232600 0.509774
415.450900 0.526141
415.669200 0.456344
415.887400 0.471635
416.105700 0.486611
416.324000 0.541290
416.542300 0.462645
416.760600 0.494133
416.979000 0.469924
417.197300 0.432996
417.415700 0.394400
417.634100 0.425137
417.852400 0.445225
418.070800 0.475313
418.289300 0.450378
418.507700 0.441335
418.726100 0.419971
418.944600 0.460401
419.163000 0.436980
419.381500 0.448434
419.600000 0.466550
419.818500 0.449597
420.037000 0.423476
420.255500 0.435278
420.474100 0.411675
420.692600 0.413913
420.911200 0.428415
421.129800 0.418348
421.348300 0.466251
421.566900 0.420825
421.785600 0.403974
422.004200 0.450203
422.222800 0.389997
422.441500 0.425229
422.660100 0.400851
422.878800 0.430869
423.097500 0.383830
423.316200 0.446661
423.534900 0.380844
423.753600 0.423332
423.972400 0.415398
424.191100 0.380205
424.409900 0.404605
424.628700 0.327052
424.847500 0.376696
425.066300 0.453440
425.285100 0.305702
425.503900 0.419396
425.722800 0.366882
425.941600 0.375813
426.160500 0.386228
426.379300 0.351020
426.598200 0.371861
426.817100 0.369154
427.036100 0.339410
427.255000 0.403329
427.473900 0.347223
427.692900 0.372531
427.911800 0.359348
428.130800 0.338941
428.349800 0.346617
428.568800 0.361756
428.787800 0.370352
429.006800 0.338144
429.225900 0.353834
429.444900 0.374647
429.664000 0.334310
429.883100 0.377626
430.102200 0.339642
430.321300 0.371678
430.540400 0.353785
430.759500 0.358966
430.978700 0.343896
431.197800 0.377516
431.417000 0.328594
431.636200 0.305270
431.855300 0.314378
432.074500 0.341307
432.293800 0.359355
432.513000 0.388985
432.732200 0.339961
432.951500 0.368175
433.170700 0.330975
433.390000 0.335788
433.609300 0.397571
433.828600 0.341866
434.047900 0.395381
434.267300 0.349117
434.486600 0.312887
434.705900 0.340869
434.925300 0.360361
435.144700 0.310770
435.364100 0.325091
435.583500 0.340323
435.802900 0.289927
436.022300 0.338162
436.241800 0.287066
436.461200 0.329997
436.680700 0.343737
436.900100 0.318868
437.119600 0.337621
437.339100 0.334810
437.558600 0.333852
437.778200 0.318196
437.997700 0.292513
438.217300 0.302378
438.436800 0.320770
438.656400 0.328684
438.876000 0.313154
439.095600 0.300068
439.315200 0.323793
439.534800 0.304967
439.754500 0.329854
439.974100 0.341966
440.193800 0.338621
440.413500 0.344378
440.633100 0.379281
440.852800 0.332475
441.072500 0.334206
441.292300 0.330992
441.512000 0.327503
441.731800 0.354670
441.951500 0.331051
442.171300 0.344258
442.391100 0.305541
442.610900 0.340605
442.830700 0.316919
443.050500 0.341494
443.270300 0.333075
443.490200 0.295008
443.710100 0.360774
443.929900 0.394336
444.149800 0.354188
444.369700 0.350602
444.589600 0.342912
444.809500 0.345736
445.029500 0.359461
445.249400 0.341974
445.469400 0.357606
445.689400 0.374230
445.909300 0.342771
446.129300 0.353400
446.349300 0.356514
446.569400 0.364546
446.789400 0.389863
447.009400 0.354210
447.229500 0.323359
447.449600 0.412834
447.669600 0.365992
447.889700 0.359345
448.109800 0.354544
448.330000 0.376182
448.550100 0.370040
448.770200 0.346308
448.990400 0.377311
449.210600 0.400810
449.430700 0.392121
449.650900 0.406836
449.871100 0.352928
450.091400 0.390321
450.311600 0.389147
450.531800 0.383127
450.752100 0.396803
450.972400 0.395982
451.192600 0.352312
451.412900 0.462329
451.633200 0.391255
451.853500 0.393233
452.073900 0.407926
452.294200 0.395929
452.514600 0.398422
452.734900 0.377956
452.955300 0.370822
453.175700 0.433422
453.396100 0.405196
453.616500 0.451183
453.836900 0.406544
454.057400 0.396385
454.277800 0.440720
454.498300 0.437543
454.718800 0.406075
454.939300 0.431419
455.159700 0.394009
455.380300 0.413243
455.600800 0.417199
455.821300 0.462981
456.041900 0.414036
456.262400 0.452629
456.483000 0.430299
456.703600 0.424917
456.924200 0.427402
457.144800 0.417149
457.365400 0.472126
457.586000 0.446403
457.806700 0.515246
458.027400 0.463646
458.248000 0.464734
458.468700 0.473605
458.689400 0.415095
458.910100 0.483148
459.130800 0.493356
459.351600 0.494420
459.572300 0.536318
459.793100 0.509715
460.013800 0.458181
460.234600 0.490208
460.455400 0.506992
460.676200 0.508970
460.897000 0.525752
461.117800 0.502333
461.338700 0.485067
461.559500 0.563416
461.780400 0.472882
462.001300 0.517018
462.222200 0.496961
462.443100 0.540626
462.664000 0.514491
462.884900 0.511216
463.105900 0.564145
463.326800 0.532239
463.547800 0.543209
463.768700 0.522961
463.989700 0.562156
464.210700 0.567005
464.431700 0.562947
464.652800 0.503906
464.873800 0.571129
465.094800 0.545564
465.315900 0.605108
465.537000 0.557237
465.758100 0.624750
465.979200 0.613574
466.200300 0.653111
466.421400 0.616290
466.642500 0.634458
466.863700 0.610012
467.084800 0.582301
467.306000 0.628382
467.527200 0.655307
467.748400 0.647104
467.969600 0.592029
468.190800 0.641950
468.412000 0.664131
468.633300 0.576417
468.854500 0.645846
469.075800 0.578320
469.297000 0.658723
469.518300 0.652315
469.739600 0.692000
469.961000 0.608311
470.182300 0.669992
470.403600 0.666952
470.625000 0.669154
470.846300 0.721814
471.067700 0.630210
471.289100 0.629700
471.510500 0.643162
471.731900 0.699035
471.953300 0.651943
472.174800 0.649824
472.396200 0.722798
472.617700 0.669816
472.839100 0.758344
473.060600 0.730984
473.282100 0.739500
473.503600 0.694313
473.725100 0.725374
473.946700 0.735195
474.168200 0.695590
474.389800 0.886400
474.611300 0.846260
474.832900 0.747695
475.054500 0.791627
475.276100 0.743470
475.497700 0.761751
475.719300 0.753905
475.941000 0.770568
476.162600 0.749690
476.384300 0.790568
476.606000 0.678453
476.827700 0.734280
477.049400 0.786470
477.271100 0.775713
477.492800 0.883677
477.714500 0.757743
477.936300 0.774011
478.158000 0.850763
478.379800 0.798685
478.601600 0.854958
478.823400 0.790076
479.045200 0.760341
479.267000 0.851283
479.488800 0.845660
479.710700 0.901847
479.932500 0.895622
480.154400 0.910682
480.376300 0.853216
480.598200 0.873061
480.820100 0.891202
481.042000 0.919602
481.263900 0.956881
481.485900 0.944868
481.707800 0.838324
481.929800 0.959993
482.151700 0.877242
482.373700 0.876699
482.595700 0.827656
482.817700 0.864791
483.039800 0.953210
483.261800 0.850176
483.483800 0.922277
483.705900 0.907517
483.928000 0.918440
484.150100 0.946865
484.372100 0.997261
484.594300 0.858805
484.816400 0.965679
485.038500 1.071495
485.260600 0.969908
485.482800 1.006991
485.705000 0.985274
485.927100 1.006644
486.149300 1.023347
486.371500 1.010401
486.593700 0.996150
486.816000 0.986082
487.038200 1.047228
487.260500 1.061054
487.482700 1.015014
487.705000 0.925473
487.927300 0.932405
488.149600 1.114250
488.371900 1.028310
488.594200 0.993192
488.816500 1.061860
489.038900 1.015907
489.261200 1.042077
489.483600 0.936044
489.706000 1.258310
489.928400 1.024936
490.150800 1.016179
490.373200 1.147684
490.595600 1.043913
490.818000 1.091674
491.040500 1.097777
491.263000 1.058064
491.485400 1.038960
491.707900 0.911111
491.930400 1.217002
492.152900 1.042735
492.375500 1.247289
492.598000 1.086640
492.820500 1.090325
493.043100 1.079815
493.265700 1.157912
493.488200 0.999576
493.710800 1.252599
493.933400 1.039372
494.156100 1.143484
494.378700 1.206211
494.601300 1.051540
494.824000 1.094373
495.046600 1.118124
495.269300 1.134785
495.492000 1.182197
495.714700 1.005978
495.937400 1.126733
496.160100 1.110770
496.382900 1.116690
496.605600 1.149561
496.828400 1.142727
497.051100 1.051076
497.273900 1.415005
497.496700 1.152530
497.719500 0.977795
497.942300 1.064332
498.165200 1.020114
498.388000 1.134041
498.610900 1.338544
498.833700 1.125773
499.056600 1.275873
499.279500 1.060515
499.502400 1.346649
499.725300 1.018924
499.948200 1.107750
500.171200 1.141533
500.394100 1.097040
500.617100 1.156186
500.840000 1.169553
501.063000 1.213343
501.286000 1.143065
501.509000 1.102166
501.732000 1.181373
501.955100 1.154681
502.178100 1.175962
502.401200 1.368534
502.624200 1.034678
502.847300 1.078161
503.070400 1.342789
503.293500 1.325405
503.516600 1.411939
503.739700 1.159171
503.962800 1.294930
504.186000 1.061410
504.409200 1.315858
504.632300 1.146077
504.855500 1.331054
505.078700 1.142858
505.301900 1.258484
505.525100 1.146676
505.748300 1.102453
505.971600 1.276508
506.194800 1.521815
506.418100 1.093438
506.641400 1.327243
506.864700 1.079897
507.088000 1.135117
507.311300 1.120164
507.534600 1.195160
507.757900 1.088616
507.981300 1.163965
508.204600 1.131260
508.428000 1.168004
508.651400 1.085746
508.874800 1.408160
509.098200 1.061929
509.321600 1.156436
509.545000 1.050499
509.768500 1.208496
509.991900 1.093544
510.215400 1.281486
510.438800 1.221429
510.662300 1.439851
510.885800 1.386437
511.109300 1.227153
511.332900 0.996467
511.556400 1.525795
511.779900 1.187147
512.003500 1.178074
512.227000 0.980889
512.450600 1.084099
512.674200 1.019161
512.897800 1.292397
513.121400 1.038591
513.345100 1.178716
513.568700 1.128623
513.792300 1.306824
514.016000 1.210314
514.239700 1.251121
514.463400 1.094252
514.687100 1.194616
514.910800 1.109656
515.134500 1.204561
515.358200 1.125028
515.581900 1.350103
515.805700 1.245170
516.029500 1.270373
516.253200 1.240721
516.477000 1.183661
516.700800 1.223279
516.924600 1.250655
517.148500 1.001948
517.372300 1.202165
517.596100 1.083668
517.820000 1.070434
518.043900 0.978210
518.267700 1.257957
518.491600 1.312379
518.715500 1.042026
518.939500 0.997356
519.163400 1.094642
519.387300 1.514841
519.611300 1.292429
519.835200 0.911556
520.059200 0.953841
520.283200 1.092365
520.507200 1.003852
520.731200 1.026881
520.955200 1.150356
521.179200 0.982452
521.403300 0.989436
521.627300 1.067117
521.851400 1.010067
522.075500 0.970595
522.299600 0.925422
522.523700 0.992356
522.747800 1.042054
522.971900 1.457746
523.196000 0.817925
523.420200 1.091456
523.644300 0.847479
523.868500 0.990728
524.092700 0.985228
524.316900 0.988500
524.541100 1.117569
524.765300 0.917294
524.989500 1.008322
525.213800 1.000835
525.438000 1.046071
525.662300 1.090039
525.886500 0.974444
526.110800 0.991574
526.335100 0.959343
526.559400 0.849903
526.783700 0.965638
527.008100 0.927659
527.232400 0.853818
527.456800 0.947429
527.681100 1.101069
527.905500 0.956629
528.129900 0.943187
528.354300 0.928019
528.578700 0.939130
528.803100 1.045455
529.027600 0.986317
529.252000 0.933087
529.476500 0.872856
529.700900 0.910541
529.925400 0.818474
530.149900 0.901702
530.374400 0.860228
530.598900 0.793879
530.823400 0.798691
531.048000 0.861869
531.272500 0.781779
531.497100 0.879929
531.721700 0.807212
531.946200 0.916306
532.170800 0.836015
532.395400 0.878547
532.620000 0.855409
532.844700 0.947085
533.069300 0.746132
533.294000 0.798822
533.518600 0.797910
533.743300 0.851248
533.968000 0.848435
534.192700 0.800344
534.417400 0.763515
534.642100 0.790496
534.866800 0.794462
535.091600 0.827825
535.316300 0.759926
535.541100 0.793004
535.765900 0.769534
535.990700 0.716747
536.215500 0.700213
536.440300 0.752765
536.665100 0.694302
536.889900 0.719690
537.114800 0.685102
537.339600 0.682001
537.564500 0.695432
537.789400 0.681338
538.014300 0.716268
538.239200 0.721516
538.464100 0.632070
538.689000 0.744477
538.913900 0.663565
539.138900 0.731465
539.363800 0.677173
539.588800 0.741141
539.813800 0.691319
540.038800 0.742907
540.263800 0.671503
540.488800 0.606189
540.713800 0.609383
540.938900 0.643142
541.163900 0.658493
541.389000 0.682468
541.614000 0.645365
541.839100 0.639407
542.064200 0.590202
542.289300 0.642995
542.514400 0.576076
542.739600 0.610545
542.964700 0.624984
543.189900 0.607726
543.415000 0.562514
543.640200 0.584919
543.865400 0.595855
544.090600 0.553008
544.315800 0.577464
544.541000 0.573397
544.766200 0.538492
544.991500 0.544746
545.216700 0.463637
545.442000 0.596930
545.667300 0.563126
545.892600 0.517189
546.117900 0.508183
546.343200 0.519508
546.568500 0.534840
546.793800 0.493602
547.019200 0.470127
547.244500 0.440361
547.469900 0.499230
547.695300 0.458030
547.920600 0.467914
548.146000 0.491372
548.371500 0.470081
548.596900 0.480428
548.822300 0.479947
549.047800 0.492389
549.273200 0.453366
549.498700 0.479188
549.724200 0.467206
549.949600 0.469384
550.175100 0.431429
550.400700 0.419217
550.626200 0.440612
550.851700 0.432166
551.077300 0.432458
551.302800 0.391625
551.528400 0.410480
551.754000 0.423610
551.979600 0.447620
552.205200 0.422348
552.430800 0.403675
552.656400 0.396819
552.882000 0.391216
553.107700 0.357671
553.333300 0.396457
553.559000 0.395555
553.784700 0.379336
554.010400 0.406657
554.236100 0.355882
554.461800 0.369559
554.687500 0.371624
554.913200 0.365265
555.139000 0.348729
555.364800 0.340587
555.590500 0.335055
555.816300 0.343093
556.042100 0.346014
556.267900 0.349275
556.493700 0.350731
556.719500 0.327141
556.945400 0.340089
557.171200 0.332530
557.397100 0.289664
557.623000 0.312695
557.848800 0.282124
558.074700 0.317664
558.300600 0.305839
558.526600 0.296273
558.752500 0.303715
558.978400 0.280987
559.204400 0.279287
559.430300 0.288240
559.656300 0.267710
559.882300 0.275992
560.108300 0.238409
560.334300 0.258252
560.560300 0.271890
560.786300 0.285329
561.012400 0.273013
561.238400 0.270296
561.464500 0.265850
561.690500 0.266479
561.916600 0.282044
562.142700 0.233505
562.368800 0.256457
562.594900 0.245228
562.821100 0.272341
563.047200 0.237708
563.273300 0.249599
563.499500 0.223197
563.725700 0.253125
563.951900 0.214736
564.178100 0.213396
564.404300 0.234082
564.630500 0.230804
564.856700 0.222284
565.082900 0.227802
565.309200 0.209830
565.535500 0.205297
565.761700 0.183257
565.988000 0.209210
566.214300 0.200775
566.440600 0.182572
566.666900 0.195145
566.893200 0.182829
567.119600 0.169196
567.345900 0.208671
567.572300 0.197819
567.798700 0.188860
568.025000 0.172771
568.251400 0.181813
568.477800 0.174938
568.704300 0.173550
568.930700 0.174462
569.157100 0.171114
569.383600 0.173594
569.610000 0.173269
569.836500 0.170482
570.063000 0.171014
570.289500 0.173508
570.516000 0.170496
570.742500 0.169199
570.969000 0.171822
571.195600 0.156427
571.422100 0.165426
571.648700 0.174023
571.875200 0.154951
572.101800 0.147626
572.328400 0.165184
572.555000 0.157407
572.781600 0.152157
573.008200 0.159571
573.234900 0.158473
573.461500 0.143923
573.688200 0.143108
573.914900 0.148086
574.141500 0.143349
574.368200 0.145745
574.594900 0.132903
574.821600 0.128247
575.048400 0.136722
575.275100 0.132594
575.501800 0.128770
575.728600 0.128487
575.955400 0.125990
576.182100 0.138602
576.408900 0.134958
576.635700 0.122535
576.862600 0.120426
577.089400 0.126026
577.316200 0.114922
577.543100 0.129849
577.769900 0.120204
577.996800 0.121211
578.223700 0.117212
578.450500 0.123353
578.677400 0.111662
578.904400 0.103416
579.131300 0.108231
579.358200 0.105821
579.585100 0.099096
579.812100 0.093300
580.039100 0.098547
580.266000 0.099880
580.493000 0.093133
580.720000 0.093134
580.947000 0.079480
581.174100 0.097341
581.401100 0.095579
581.628100 0.095466
581.855200 0.084366
582.082200 0.099251
582.309300 0.091328
582.536400 0.080457
582.763500 0.083524
582.990600 0.081402
583.217700 0.076678
583.444900 0.074545
583.672000 0.072577
583.899100 0.076916
584.126300 0.070487
584.353500 0.069307
584.580700 0.065052
584.807900 0.080613
585.035100 0.072371
585.262300 0.087177
585.489500 0.086496
585.716700 0.080582
585.944000 0.080697
586.171300 0.075351
586.398500 0.069161
586.625800 0.073721
586.853100 0.064169
587.080400 0.066980
587.307700 0.061924
587.535000 0.069924
587.762400 0.065403
587.989700 0.063377
588.217100 0.066451
588.444500 0.064616
588.671800 0.061102
588.899200 0.063802
589.126600 0.060416
589.354000 0.067386
589.581500 0.051914
589.808900 0.048778
590.036300 0.064398
590.263800 0.063311
590.491300 0.048601
590.718700 0.052611
590.946200 0.059719
591.173700 0.045569
591.401200 0.065642
591.628800 0.064389
591.856300 0.065250
592.083800 0.070620
592.311400 0.049426
592.538900 0.055134
592.766500 0.058705
592.994100 0.057842
593.221700 0.070932
593.449300 0.060854
593.676900 0.049367
593.904600 0.056690
594.132200 0.045627
594.359800 0.050288
594.587500 0.051604
594.815200 0.043249
595.042900 0.054361
595.270500 0.049501
595.498300 0.039460
595.726000 0.043850
595.953700 0.042504
596.181400 0.041286
596.409200 0.042302
596.636900 0.050906
596.864700 0.058414
597.092500 0.057296
597.320300 0.046021
597.548100 0.045628
597.775900 0.055722
598.003700 0.044123
598.231500 0.049993
598.459400 0.051953
598.687200 0.045811
598.915100 0.056023
599.143000 0.054582
599.370900 0.045574
599.598800 0.046547
599.826700 0.048080
600.054600 0.048173
600.282500 0.050654
600.510500 0.041012
600.738400 0.037378
600.966400 0.034561
601.194400 0.046161
601.422300 0.028972
601.650300 0.025674
601.878300 0.033382
602.106400 0.042552
602.334400 0.047644
602.562400 0.038563
602.790500 0.039839
603.018500 0.034590
603.246600 0.043923
603.474700 0.039958
603.702800 0.031346
603.930900 0.042006
604.159000 0.035175
604.387100 0.041724
604.615200 0.043735
604.843400 0.038307
605.071500 0.035018
605.299700 0.030358
605.527900 0.021927
605.756100 0.033086
605.984300 0.025384
606.212500 0.022865
606.440700 0.016157
606.668900 0.013851
606.897200 0.010101
607.125400 0.027562
607.353700 0.018037
607.581900 0.040004
607.810200 0.017628
608.038500 0.030673
608.266800 0.020148
608.495100 0.023180
608.723500 0.014333
608.951800 0.029941
609.180100 0.012204
609.408500 0.039036
609.636900 0.028612
609.865300 0.032007
610.093600 0.019321
610.322000 0.028611
610.550500 0.018642
610.778900 0.026148
611.007300 0.019039
611.235700 0.033078
611.464200 0.031975
611.692700 0.022968
611.921100 0.033359
612.149600 0.025917
612.378100 0.032095
612.606600 0.021981
612.835100 0.037424
613.063700 0.014809
613.292200 0.030423
613.520800 0.014957
613.749300 0.012929
613.977900 0.028047
614.206500 0.030004
614.435100 0.026310
614.663700 0.023641
614.892300 0.019840
615.120900 0.022517
615.349500 0.033533
615.578200 0.024016
615.806800 0.029159
616.035500 0.031464
616.264200 0.016748
616.492900 0.015272
616.721600 0.010611
616.950300 0.024746
617.179000 0.018122
617.407700 0.024727
617.636500 0.011476
617.865200 0.000797
618.094000 0.024333
618.322700 0.033186
618.551500 0.010903
618.780300 0.012271
619.009100 0.024101
619.237900 0.035635
619.466700 0.024783
619.695600 0.015593
619.924400 0.014791
620.153300 0.027415
620.382100 0.030411
620.611000 0.017919
620.839900 0.005934
621.068800 -0.010235
621.297700 0.021468
621.526600 0.012071
621.755600 0.021402
621.984500 0.020183
622.213500 0.013997
622.442400 0.005940
622.671400 0.026162
622.900400 0.006927
623.129400 0.037475
623.358400 0.018982
623.587400 0.015995
623.816400 0.010159
624.045400 0.033407
624.274500 0.022013
624.503500 0.024229
624.732600 0.018687
624.961700 0.030291
625.190800 0.006556
625.419900 0.001415
625.649000 0.037501
625.878100 0.001966
626.107200 0.007957
626.336400 0.006073
626.565500 0.034539
626.794700 0.019938
627.023800 0.008478
627.253000 0.009556
627.482200 0.035080
627.711400 0.013344
627.940600 0.024811
628.169800 0.008463
628.399100 0.027105
628.628300 0.025686
628.857600 0.009883
629.086800 -0.006115
629.316100 0.017278
629.545400 0.004665
629.774700 0.032585
630.004000 0.026457
630.233300 0.027282
630.462600 0.022284
630.692000 0.022539
630.921300 0.008543
631.150700 0.028108
631.380100 0.021415
631.609400 0.027483
631.838800 0.025602
632.068200 0.020149
632.297600 0.016003
632.527100 0.022612
632.756500 0.001351
632.985900 0.013792
633.215400 0.025755
633.444800 0.010837
633.674300 0.019929
633.903800 -0.003769
634.133300 0.004533
634.362800 0.018317
634.592300 -0.010995
634.821800 0.032029
635.051400 0.021834
635.280900 0.014064
635.510500 -0.015703
635.740000 0.017613
635.969600 0.022135
636.199200 -0.005968
636.428800 0.016584
636.658400 0.006705
636.888000 0.007885
637.117700 0.019257
637.347300 0.001209
637.577000 0.021419
637.806600 0.032675
638.036300 0.030372
638.266000 0.013123
638.495700 0.029436
638.725400 0.009856
638.955100 -0.021925
639.184800 0.008042
639.414500 0.019668
639.644300 0.011973
639.874000 0.005660
640.103800 0.001792
640.333600 0.011910
640.563300 -0.021698
640.793100 0.033913
641.022900 0.026310
641.252800 -0.013560
641.482600 0.042668
641.712400 -0.005204
641.942300 0.030974
642.172100 0.003464
642.402000 0.023567
642.631900 -0.018120
642.861700 0.018336
643.091600 0.012762
643.321600 0.005034
643.551500 0.001591
643.781400 0.028170
644.011300 0.018443
644.241300 0.026555
644.471200 -0.004442
644.701200 -0.011429
644.931200 0.026415
645.161200 -0.014869
645.391200 0.039753
645.621200 0.017696
645.851200 -0.001390
646.081200 0.004293
646.311300 0.052391
646.541300 0.052336
646.771400 -0.005365
647.001500 0.058036
647.231600 0.027984
647.461600 -0.000843
647.691800 0.021588
647.921900 0.010204
648.152000 0.034193
648.382100 -0.007390
648.612300 0.051394
648.842400 0.010939
649.072600 0.036271
649.302800 -0.019608
649.532900 0.039058
649.763100 0.001543
649.993300 -0.013034
650.223600 0.024893
650.453800 -0.029840
650.684000 0.028281
650.914300 -0.013290
651.144500 -0.013491
651.374800 0.012036
651.605100 -0.008328
651.835400 0.005036
652.065700 0.012372
652.296000 0.018781
652.526300 0.001782
652.756600 0.031757
652.987000 -0.007592
653.217300 -0.000433
653.447700 -0.016269
653.678000 -0.014584
653.908400 -0.004821
654.138800 0.017840
654.369200 0.013495
654.599600 0.015186
654.830000 0.024121
655.060500 0.018472
655.290900 0.013633
655.521300 0.025373
655.751800 0.035041
655.982300 0.002910
656.212800 0.000974
656.443300 0.001458
656.673800 0.001232
656.904300 0.002850
657.134800 0.026042
657.365300 0.028105
657.595900 0.024450
657.826400 0.019311
658.057000 0.024403
658.287500 0.019469
658.518100 0.010887
658.748700 0.019523
658.979300 0.016517
659.209900 0.001015
659.440600 -0.018890
659.671200 -0.033739
659.901800 -0.038351
660.132500 -0.045402
660.363200 0.008740
660.593800 -0.010017
660.824500 0.028704
661.055200 -0.000645
661.285900 0.001191
661.516600 0.000311
661.747400 0.012487
661.978100 -0.001074
662.208800 -0.019495
662.439600 -0.002827
662.670400 0.038885
662.901100 0.031393
663.131900 0.047110
663.362700 0.008085
663.593500 0.025517
663.824300 0.077661
664.055200 0.054669
664.286000 -0.026778
664.516800 -0.010238
664.747700 0.010193
664.978600 0.003142
665.209400 -0.041831
665.440300 0.033591
665.671200 0.000086
665.902100 0.068838
666.133000 0.030529
666.364000 0.005369
666.594900 -0.026355
666.825900 0.010452
667.056800 0.036853
667.287800 0.008468
667.518800 -0.009717
667.749700 0.004923
667.980700 0.010128
668.211700 0.010256
668.442800 0.004524
668.673800 0.052647
668.904800 0.001007
669.135900 0.042012
669.366900 0.020389
669.598000 -0.021093
669.829100 0.000160
670.060200 0.039588
670.291300 0.073103
670.522400 0.029428
670.753500 0.010155
670.984600 0.014869
671.215700 0.003465
671.446900 0.008184
671.678100 0.032929
671.909200 0.014410
672.140400 0.016579
672.371600 0.037068
672.602800 0.038817
672.834000 0.022528
673.065200 0.004943
673.296400 0.003282
673.527700 0.017065
673.758900 0.023476
673.990200 0.018515
674.221400 0.044058
674.452700 -0.004771
674.684000 0.020658
674.915300 0.042478
675.146600 0.002940
675.377900 0.006498
675.609300 0.012889
675.840600 0.021279
676.071900 0.003206
676.303300 -0.021804
676.534700 0.008722
676.766100 0.027425
676.997400 -0.015524
677.228800 -0.015290
677.460200 -0.002581
677.691700 0.030379
677.923100 0.017225
678.154500 -0.005274
678.386000 0.029709
678.617400 -0.007945
678.848900 -0.005584
679.080400 0.002361
679.311900 0.006358
679.543400 -0.007382
679.774900 -0.006049
680.006400 0.025925
680.237900 -0.001434
680.469400 0.000610
680.701000 0.028316
680.932500 -0.001489
681.164100 -0.014895
681.395700 0.022164
681.627300 0.022008
681.858900 0.016757
682.090500 0.010658
682.322100 -0.016519
682.553700 0.001611
682.785400 -0.007645
683.017000 -0.018627
683.248700 0.025657
683.480300 -0.006147
683.712000 -0.019782
683.943700 0.006825
684.175400 0.042610
684.407100 0.018633
684.638800 0.028480
684.870500 0.006071
685.102300 0.012064
685.334000 0.040916
685.565800 0.045120
685.797500 -0.006875
686.029300 0.004037
686.261100 0.022343
686.492900 0.023048
686.724700 -0.003093
686.956500 -0.021443
687.188300 -0.003239
687.420200 0.004666
687.652000 -0.002998
687.883800 -0.009209
688.115700 -0.011890
688.347600 0.018726
688.579500 0.028870
688.811400 0.007855
689.043300 0.023365
689.275200 -0.011785
689.507100 0.010673
689.739000 0.020862
689.971000 -0.003411
690.202900 -0.022363
690.434900 -0.004421
690.666900 0.014906
690.898800 0.021082
691.130800 0.015980
691.362800 0.006007
691.594800 -0.001452
691.826900 0.007172
692.058900 0.018133
692.290900 0.015772
692.523000 0.012722
692.755000 0.021983
692.987100 -0.006739
693.219200 0.008417
693.451300 0.012921
693.683400 0.012674
693.915500 0.007053
694.147600 -0.005170
694.379700 0.019652
694.611900 -0.030024
694.844000 0.027022
695.076200 0.002023
695.308300 0.029167
695.540500 -0.013586
695.772700 0.001146
696.004900 0.007944
696.237100 0.021412
696.469300 0.006455
696.701600 0.000969
696.933800 0.000641
697.166000 0.003027
697.398300 0.011465
697.630600 0.032511
697.862800 0.044801
698.095100 0.014269
698.327400 0.005184
698.559700 0.024057
698.792000 -0.026248
699.024300 0.001196
699.256700 0.005209
699.489000 -0.003647
699.721400 0.019138
699.953700 -0.004513
700.186100 0.015129
700.418500 0.013771
700.650900 -0.003635
700.883300 0.021138
701.115700 0.009090
701.348100 0.001555
701.580600 0.030153
701.813000 -0.001045
702.045400 -0.010416
702.277900 0.021184
702.510400 0.022602
702.742900 -0.026918
702.975300 0.000043
703.207800 0.004995
703.440300 0.023408
703.672900 0.037968
703.905400 -0.029578
704.137900 0.031561
704.370500 0.003433
704.603000 0.033039
704.835600 -0.018902
705.068200 -0.033637
705.300800 -0.003992
705.533400 0.024944
705.766000 0.023122
705.998600 0.020705
706.231200 0.023685
706.463800 0.027156
706.696500 0.017398
706.929100 0.012834
707.161800 -0.017081
707.394500 0.027385
707.627200 0.003813
707.859900 0.035043
708.092600 0.048515
708.325300 0.021435
708.558000 -0.011197
708.790700 0.014387
709.023500 0.025538
709.256200 0.032571
709.489000 -0.008957
709.721700 -0.019197
709.954500 -0.029908
710.187300 -0.001515
710.420100 0.017376
710.652900 -0.015884
710.885700 -0.006345
711.118600 0.000718
711.351400 -0.040942
711.584200 -0.012031
711.817100 0.030312
712.050000 0.034589
712.282800 -0.008480
712.515700 -0.018085
712.748600 0.017676
712.981500 0.007416
713.214400 0.016726
713.447400 0.011873
713.680300 0.001250
713.913200 -0.015434
714.146200 -0.013539
714.379100 -0.030373
714.612100 -0.013687
714.845100 0.006362
715.078100 0.008216
715.311100 -0.022621
715.544100 0.017635
715.777100 -0.007098
716.010200 -0.019912
716.243200 -0.027770
716.476200 0.018797
716.709300 0.020716
716.942400 -0.009974
717.175400 0.020113
717.408500 -0.008032
717.641600 -0.018018
717.874700 -0.010300
718.107800 0.000801
718.341000 0.030080
718.574100 0.009749
718.807200 0.019336
719.040400 0.021139
719.273600 0.041265
719.506700 0.001343
719.739900 -0.030918
719.973100 -0.021801
720.206300 -0.033242
720.439500 -0.015492
720.672700 0.003198
720.906000 -0.024403
721.139200 0.003425
721.372500 0.026987
721.605700 -0.001488
721.839000 0.039724
722.072300 0.007575
722.305500 0.018756
722.538800 0.001623
722.772100 -0.028352
723.005500 0.032759
723.238800 0.005853
723.472100 0.022227
723.705500 -0.017133
723.938800 0.015788
724.172200 -0.021736
724.405600 -0.004800
724.638900 0.054997
724.872300 -0.012958
725.105700 0.020169
725.339100 0.014420
725.572600 0.016351
725.806000 -0.011886
726.039400 0.023370
726.272900 0.022354
726.506300 0.002158
726.739800 0.017339
726.973300 0.010436
727.206800 0.009350
727.440300 0.036597
727.673800 -0.010290
727.907300 0.019105
728.140800 -0.011757
728.374300 -0.016578
728.607900 0.019006
728.841400 0.000414
729.075000 -0.012995
729.308600 -0.007100
729.542100 -0.003983
729.775700 0.036814
730.009300 0.009087
730.242900 0.005172
730.476600 0.044619
730.710200 0.013656
730.943800 0.016407
731.177500 0.020715
731.411100 0.019744
731.644800 0.033403
731.878500 0.013115
732.112200 0.014475
732.345800 0.023959
732.579500 0.040915
732.813300 0.017336
733.047000 -0.006348
733.280700 0.031536
733.514500 0.023571
733.748200 0.008618
733.982000 0.017241
734.215700 0.023078
734.449500 0.008282
734.683300 0.025701
734.917100 0.002153
735.150900 0.001053
735.384700 0.015440
735.618500 -0.015450
735.852400 0.035473
736.086200 0.004868
736.320100 -0.011070
736.553900 0.023142
736.787800 0.002290
737.021700 0.015642
737.255600 0.018818
737.489500 0.018102
737.723400 -0.006417
737.957300 -0.013728
738.191200 0.001392
738.425200 0.007160
738.659100 -0.001726
738.893100 0.003454
739.127100 0.017152
739.361000 0.012410
739.595000 0.015235
739.829000 -0.000584
740.063000 0.002168
740.297000 0.003359
740.531000 -0.015936
740.765100 0.021510
740.999100 0.032678
741.233200 0.024547
741.467200 0.038983
741.701300 0.006588
741.935400 0.013556
742.169500 -0.004354
742.403600 -0.000689
742.637700 0.001807
742.871800 -0.000955
743.105900 -0.001913
743.340000 -0.018339
743.574200 0.010575
743.808300 0.015846
744.042500 -0.025404
744.276700 -0.004429
744.510800 0.000206
744.745000 0.011301
744.979200 0.016060
745.213400 0.040027
745.447700 -0.004061
745.681900 -0.028876
745.916100 0.045548
746.150400 0.018927
746.384600 0.024425
746.618900 -0.027307
746.853200 0.018607
747.087400 0.003630
747.321700 0.012580
747.556000 0.011842
747.790300 0.019717
748.024700 -0.024354
748.259000 0.008847
748.493300 0.000044
748.727700 -0.009577
748.962000 0.034031
749.196400 -0.005859
749.430800 0.043706
749.665200 -0.016896
749.899500 -0.003385
750.133900 -0.014304
750.368400 -0.013507
750.602800 0.031715
750.837200 -0.018432
751.071700 -0.003982
751.306100 0.008421
751.540600 -0.013392
751.775000 -0.007944
752.009500 0.020655
752.244000 0.009918
752.478500 -0.013614
752.713000 0.019028
752.947500 -0.022270
753.182000 0.027661
753.416600 0.033652
753.651100 0.026284
753.885600 0.012598
754.120200 0.038023
754.354800 -0.008372
754.589400 0.029365
754.823900 -0.016658
755.058500 0.022097
755.293100 0.001153
755.527800 -0.002518
755.762400 0.006210
755.997000 0.015442
756.231700 0.020706
756.466300 0.025424
756.701000 0.028377
756.935600 0.012513
757.170300 0.009113
757.405000 0.036087
757.639700 0.007878
757.874400 0.033867
758.109100 0.038340
758.343800 0.003183
758.578600 0.015527
758.813300 0.011764
759.048100 0.014813
759.282800 0.004119
759.517600 0.019970
759.752400 0.011600
759.987200 0.009455
760.222000 0.001470
760.456800 0.010899
760.691600 0.016254
760.926400 0.025113
761.161300 -0.008353
761.396100 0.010772
761.631000 0.015696
761.865800 0.011746
762.100700 0.043189
762.335600 0.017834
762.570500 -0.000473
762.805400 0.003565
763.040300 -0.002611
763.275200 0.016941
763.510100 -0.005218
763.745000 0.018018
763.980000 0.023132
764.214900 0.012758
764.449900 0.028580
764.684900 0.031337
764.919800 0.009422
765.154800 0.010927
765.389800 0.001439
765.624800 0.006834
765.859900 -0.000634
766.094900 0.000727
766.329900 0.010813
766.565000 0.014253
766.800000 -0.005072
767.035100 0.002805
767.270100 0.011944
767.505200 0.001750
767.740300 0.022861
767.975400 -0.012136
768.210500 -0.002679
768.445600 0.019866
768.680800 0.016400
768.915900 0.029101
769.151000 0.024023
769.386200 0.015760
769.621400 -0.003849
769.856500 0.004952
770.091700 0.024234
770.326900 0.000030
770.562100 0.004725
770.797300 -0.002921
771.032500 -0.005894
771.267700 0.001875
771.503000 0.004456
771.738200 0.028080
771.973500 0.002454
772.208700 0.007065
772.444000 0.030407
772.679300 0.001422
772.914600 -0.001724
773.149900 -0.009038
773.385200 -0.007358
773.620500 0.006796
773.855800 -0.000984
774.091100 0.025248
774.326500 0.005407
774.561800 -0.009164
774.797200 0.023103
775.032600 0.059442
775.267900 -0.019163
775.503300 0.026934
775.738700 0.003550
775.974100 0.024422
776.209500 -0.020148
776.445000 0.019565
776.680400 0.055000
776.915800 -0.009266
777.151300 -0.021769
777.386800 0.041716
777.622200 0.015599
777.857700 -0.006857
778.093200 0.033493
778.328700 0.001888
778.564200 -0.031193
778.799700 -0.000106
779.035200 0.014168
779.270700 0.019351
779.506300 0.031102
779.741800 0.001363
779.977400 0.026487
780.213000 0.015944
780.448500 0.001951
780.684100 -0.000437
780.919700 0.028149
781.155300 -0.008026
781.390900 0.024034
781.626500 0.023804
781.862200 0.032146
782.097800 0.017608
782.333500 0.014332
782.569100 -0.009945
782.804800 0.001727
783.040500 0.014500
783.276100 -0.037264
783.511800 0.007957
783.747500 0.017964
783.983200 -0.009982
784.219000 -0.009765
784.454700 0.023214
784.690400 0.029435
784.926200 0.020632
785.161900 0.018515
785.397700 -0.012258
785.633500 0.016639
785.869200 0.003317
786.105000 -0.014353
786.340800 0.028428
786.576600 -0.005177
786.812400 0.016783
787.048300 0.009735
787.284100 0.034316
787.519900 0.017523
787.755800 0.005771
787.991700 0.007062
788.227500 -0.013509
788.463400 -0.010905
788.699300 -0.006094
788.935200 0.014773
789.171100 0.041086
789.407000 -0.008958
789.642900 0.014041
789.878900 0.027154
790.114800 0.023169
790.350700 -0.021556
790.586700 -0.006493
790.822700 0.045444
791.058600 -0.002781
791.294600 0.001206
791.530600 0.006070
791.766600 -0.005757
792.002600 0.004959
792.238700 0.016071
792.474700 0.021028
792.710700 -0.005073
792.946800 -0.021093
793.182800 -0.008590
793.418900 0.004225
793.655000 0.041389
793.891000 0.014425
794.127100 0.027571
794.363200 -0.017667
794.599300 -0.005609
794.835500 0.004515
795.071600 0.039168
795.307700 0.018765
795.543900 0.011008
795.780000 0.029540
796.016200 0.018999
796.252300 0.018871
796.488500 0.030966
796.724700 0.009575
796.960900 0.004698
797.197100 0.030265
797.433300 -0.013947
797.669500 -0.003335
797.905800 0.044561
798.142000 0.032726
798.378300 -0.031398
798.614500 0.016865
798.850800 0.024548
799.087100 0.006778
799.323300 0.023493
799.559600 -0.005545
799.795900 0.001613
800.032200 0.015378
800.268600 0.002067
800.504900 -0.013370
800.741200 -0.017123
800.977600 -0.000491
801.213900 0.011337
801.450300 0.059519
801.686700 0.014906
801.923000 -0.047866
802.159400 0.013124
802.395800 -0.005935
802.632200 0.014650
802.868600 0.026101
803.105100 -0.026347
803.341500 -0.037795
803.577900 0.042151
803.814400 0.051928
804.050800 -0.020947
804.287300 0.010225
804.523800 0.042803
804.760300 -0.020016
804.996800 0.017793
805.233300 0.017099
805.469800 0.032149
805.706300 0.021581
805.942800 0.017584
806.179400 -0.001784
806.415900 -0.003286
806.652500 0.005331
806.889000 0.020374
807.125600 0.009467
807.362200 -0.035178
807.598800 0.018894
807.835400 0.003143
808.072000 -0.012447
808.308600 0.009004
808.545200 0.005877
808.781800 -0.009157
809.018500 0.052827
809.255100 0.027712
809.491800 -0.030364
809.728400 -0.011020
809.965100 -0.011592
810.201800 0.001550
810.438500 -0.040167
810.675200 -0.002496
810.911900 0.043996
811.148600 0.051962
811.385300 -0.000501
811.622100 0.037776
811.858800 0.008593
812.095600 -0.060121
812.332300 0.019394
812.569100 -0.042545
812.805900 0.033132
813.042700 0.013249
813.279500 0.021544
813.516300 -0.090666
813.753100 0.008189
813.989900 0.018012
814.226700 0.011265
814.463600 0.010916
814.700400 0.030371
814.937300 -0.011402
815.174200 -0.010576
815.411000 -0.032739
815.647900 -0.048984
815.884800 -0.013486
816.121700 -0.008583
816.358600 -0.030825
816.595500 0.065273
816.832400 0.021570
817.069400 -0.030781
817.306300 0.071429
817.543300 -0.023307
817.780200 -0.025453
818.017200 0.058828
818.254200 0.068187
818.491200 0.000784
818.728200 0.046008
818.965200 -0.010184
819.202200 0.012810
819.439200 0.009635
819.676200 -0.000645
819.913300 -0.037622
820.150300 -0.027221
820.387400 0.010906
820.624400 0.010283
820.861500 0.025016
821.098600 0.044322
821.335700 0.108905
821.572700 0.060127
821.809900 0.031025
822.047000 0.065644
822.284100 0.001538
822.521200 0.014217
822.758400 0.051834
822.995500 0.038451
823.232700 0.030338
823.469800 0.064584
823.707000 -0.043683
823.944200 -0.007415
824.181400 0.042650
824.418600 0.008914
824.655800 -0.018500
824.893000 -0.020210
825.130200 0.002870
825.367500 0.017005
825.604700 0.001760
825.841900 -0.082209
826.079200 0.043751
826.316500 -0.006214
826.553700 0.013692
826.791000 0.065916
827.028300 0.061364
827.265600 0.033923
827.502900 0.091553
827.740200 0.011536
827.977600 -0.049006
828.214900 -0.024363
828.452200 0.041120
828.689600 -0.010124
828.927000 -0.013064
829.164300 -0.057149
829.401700 -0.046595
829.639100 -0.003162
829.876500 -0.035971
830.113900 0.065082
830.351300 0.028379
830.588700 0.029734
830.826100 -0.007039
831.063600 -0.050480
831.301000 0.101842
831.538500 0.034453
831.775900 0.041059
832.013400 0.089536
832.250900 0.033538
832.488400 0.058872
832.725900 -0.026087
832.963400 0.050943
833.200900 0.009617
833.438400 -0.007559
833.675900 0.079082
833.913500 0.080792
834.151000 -0.035780
834.388600 0.030100
834.626100 -0.031694
834.863700 0.074905
835.101300 -0.055615
835.338900 0.053227
835.576500 0.024083
835.814100 -0.038798
836.051700 0.001741
836.289300 0.086059
836.526900 0.026146
836.764600 0.089945
837.002200 0.098401
837.239900 -0.024310
837.477500 0.049225
837.715200 -0.111967
837.952900 0.020201
838.190600 0.107005
838.428300 -0.021875
838.666000 -0.013907
838.903700 0.012591
839.141400 0.064858
839.379100 0.006233
839.616900 -0.002220
839.854600 0.010269
840.092400 0.013757
840.330200 0.082860
840.567900 0.056690
840.805700 -0.039308
841.043500 0.070575
841.281300 -0.050622
841.519100 0.043364
841.756900 -0.067555
841.994700 -0.021139
842.232600 0.043828
842.470400 0.041289
842.708200 -0.066923
842.946100 0.007859
843.184000 -0.058072
843.421800 0.077646
843.659700 0.060575
843.897600 0.011279
844.135500 0.170264
844.373400 -0.060421
844.611300 0.040845
844.849200 -0.118003
845.087200 0.066531
845.325100 0.012939
845.563100 0.003579
845.801000 -0.000207
846.039000 0.149095
846.277000 -0.060007
846.514900 0.027030
846.752900 -0.227661
846.990900 -0.073130
847.228900 -0.041897
847.466900 0.003733
847.705000 -0.051493
847.943000 -0.085571
848.181000 -0.051493
848.419100 0.046658
848.657100 0.015996
848.895200 -0.051261
849.133300 0.037860
849.371300 -0.044050
849.609400 0.118753
849.847500 0.045200
850.085600 -0.076792
850.323700 0.011351
850.561900 -0.005097
850.800000 0.016188
851.038100 -0.097476
851.276300 -0.129354
851.514400 0.056868
851.752600 0.092658
851.990800 -0.010828
852.228900 -0.087933
852.467100 0.001038
852.705300 -0.094138
852.943500 0.026657
853.181700 0.013498
853.420000 -0.070535
853.658200 0.026797
853.896400 0.016178
854.134700 0.046480
854.372900 0.043203
854.611200 0.051505
854.849500 0.071997
855.087700 0.001677
855.326000 0.066142
855.564300 0.033598
855.802600 0.055823
856.040900 0.087459
856.279200 0.035835
856.517600 0.033784
856.755900 0.024538
856.994200 -0.045326
857.232600 0.016025
857.471000 0.039334
857.709300 0.061380
857.947700 -0.024467
858.186100 0.060675
858.424500 -0.069764
858.662900 0.061351
858.901300 -0.006536
859.139700 -0.014591
859.378100 -0.074501
859.616600 0.074645
859.855000 -0.004919
860.093500 -0.048674
860.331900 -0.046642
860.570400 0.032291
860.808900 0.040962
861.047300 0.023569
861.285800 -0.047692
861.524300 0.063309
861.762800 0.033037
862.001300 0.036753
862.239900 0.046338
862.478400 0.035862
862.716900 -0.074391
862.955500 0.044141
863.194000 -0.013614
863.432600 0.040743
863.671200 0.024701
863.909800 -0.028804
864.148300 -0.105182
864.386900 -0.020987
864.625500 0.048326
864.864200 0.056565
865.102800 -0.057380
865.341400 0.022411
865.580000 -0.066172
865.818700 0.030661
866.057300 0.147307
866.296000 -0.002815
866.534700 0.000660
866.773300 0.086928
867.012000 0.053208
867.250700 0.023837
867.489400 -0.017873
867.728100 -0.024526
867.966900 0.055565
868.205600 -0.089660
868.444300 -0.009178
868.683100 -0.037487
868.921800 0.045516
869.160600 -0.099047
869.399300 0.107382
869.638100 -0.025429
869.876900 0.061408
870.115700 -0.043633
870.354500 -0.119500
870.593300 -0.005027
870.832100 0.153385
871.070900 -0.070296
871.309700 0.015897
871.548600 0.085678
871.787400 -0.055377
872.026300 -0.066119
872.265100 0.073406
872.504000 0.030001
872.742900 0.042631
872.981800 0.282045
873.220700 -0.010555
873.459600 0.140849
873.698500 0.062075
873.937400 0.036560
874.176300 0.028713
874.415300 0.108462
874.654200 -0.044821
874.893200 0.039581
875.132100 -0.052232
875.371100 -0.008388
875.610100 0.115986
875.849100 0.046976
876.088000 0.020436
876.327000 0.019255
876.566100 -0.020322
876.805100 -0.025172
877.044100 -0.151483
877.283100 -0.088351
877.522200 -0.045004
877.761200 -0.062614
878.000300 0.134184
878.239300 0.013739
878.478400 -0.014070
878.717500 0.038509
878.956600 -0.042508
879.195700 0.132285
879.434800 -0.109174
879.673900 -0.034566
879.913000 -0.077573
880.152100 -0.070574
880.391300 0.017047
880.630400 0.036612
880.869600 0.029519
881.108700 -0.012892
881.347900 0.080919
881.587100 -0.029849
881.826200 0.123804
882.065400 0.039918
882.304600 -0.092334
882.543800 0.090015
882.783100 0.101017
883.022300 -0.052042
883.261500 -0.073937
883.500700 -0.028766
883.740000 0.072109
883.979200 -0.008575
884.218500 -0.068218
884.457800 0.006897
884.697100 -0.019142
884.936300 0.098985
885.175600 0.056333
885.414900 0.033060
885.654200 -0.011803
885.893600 0.050268
886.132900 0.084547
886.372200 -0.025220
886.611600 -0.062064
886.850900 0.024472
887.090300 0.020493
887.329600 -0.075956
887.569000 0.025674
887.808400 -0.070450
888.047800 -0.021051
888.287200 0.015166
888.526600 -0.057152
888.766000 0.040323
889.005400 -0.054081
889.244800 -0.023970
889.484300 0.141588
889.723700 0.166033
889.963200 -0.055969
890.202600 -0.029792
890.442100 -0.105297
890.681600 -0.093516
890.921100 0.075451
891.160600 0.005529
891.400100 0.093483
891.639600 0.039724
891.879100 -0.102080
892.118600 -0.040839
892.358100 -0.126934
892.597700 0.086207
892.837200 0.211167
893.076800 0.059492
893.316300 -0.053512
893.555900 0.037565
893.795500 0.058048
894.035100 -0.065341
894.274700 0.067472
894.514300 0.031871
894.753900 -0.050992
894.993500 0.075610
895.233100 -0.249363
895.472700 -0.102503
895.712400 0.054003
895.952000 -0.016479
896.191700 0.001746
896.431400 0.249877
896.671000 0.071207
896.910700 -0.026883
897.150400 -0.082474
897.390100 -0.046245
897.629800 0.017795
897.869500 0.007187
898.109200 0.045369
898.348900 -0.011210
898.588700 -0.097855
898.828400 -0.012768
899.068200 0.048425
899.307900 0.058231
899.547700 -0.042268
899.787500 0.200672
900.027200 -0.256829
900.267000 0.044322
900.506800 0.046626
900.746600 0.041003
900.986400 0.010252
901.226300 -0.094743
901.466100 -0.035396
901.705900 0.075701
901.945800 -0.140804
902.185600 -0.046371
902.425500 -0.116385
902.665400 0.033487
902.905200 0.174659
903.145100 -0.039880
903.385000 -0.109371
903.624900 0.093771
903.864800 -0.137592
904.104700 -0.001982
904.344600 -0.065058
904.584600 -0.030674
904.824500 0.257408
905.064400 0.160594
905.304400 0.032566
905.544400 0.105234
905.784300 0.185637
906.024300 0.009999
906.264300 -0.023611
906.504300 0.001426
906.744300 0.086353
906.984300 -0.113775
907.224300 0.009651
907.464300 -0.098520
907.704300 0.078746
907.944400 -0.105197
908.184400 -0.066015
908.424500 -0.044486
908.664500 -0.028422
908.904600 -0.082020
909.144700 0.067451
909.384700 0.032342
909.624800 0.122073
909.864900 0.050717
910.105000 -0.107686
910.345200 -0.265798
910.585300 0.036319
910.825400 0.137029
911.065500 0.039033
911.305700 -0.052512
911.545800 -0.095493
911.786000 -0.029487
912.026200 0.071978
912.266300 0.035420
912.506500 0.258679
912.746700 0.092978
912.986900 0.110940
913.227100 0.092024
913.467300 0.074384
913.707500 -0.201377
913.947800 0.079353
914.188000 0.109433
914.428300 -0.011133
914.668500 0.015751
914.908800 -0.094698
915.149000 0.072775
915.389300 0.237189
915.629600 0.003023
915.869900 0.088585
916.110200 0.058320
916.350500 -0.014546
916.590800 -0.059484
916.831100 0.061673
917.071400 0.089395
917.311800 0.031442
917.552100 -0.075524
917.792500 0.104336
918.032800 -0.033430
918.273200 0.118753
918.513600 0.203438
918.753900 0.145360
918.994300 0.079504
919.234700 0.029511
919.475100 0.078032
919.715500 0.025483
919.956000 0.054586
920.196400 -0.081549
920.436800 0.005198
920.677300 -0.170739
920.917700 -0.009204
921.158200 0.147290
921.398600 -0.052439
921.639100 0.049419
921.879600 -0.158713
922.120100 -0.115807
922.360600 0.127680
922.601100 -0.201237
922.841600 0.098369
923.082100 -0.085775
923.322600 -0.012662
923.563100 -0.151760
923.803700 -0.029977
924.044200 0.155956
924.284800 0.185046
924.525400 -0.072679
924.765900 0.107957
925.006500 -0.049778
925.247100 -0.129391
925.487700 0.025014
925.728300 -0.076786
925.968900 -0.044115
926.209500 -0.020884
926.450100 0.005932
926.690800 0.355018
926.931400 0.201510
927.172000 -0.285845
927.412700 -0.055969
927.653300 0.029769
927.894000 -0.157541
928.134700 0.197378
928.375400 -0.171308
928.616100 0.146012
928.856800 -0.007247
929.097500 -0.033492
929.338200 0.019872
929.578900 0.304389
929.819600 -0.090927
930.060400 -0.203694
930.301100 -0.127622
930.541900 -0.019981
930.782600 0.054581
931.023400 0.094935
931.264200 0.328293
931.504900 0.039896
931.745700 -0.026500
931.986500 0.020943
932.227300 0.036255
932.468100 0.637372
932.708900 -0.067000
932.949800 0.285655
933.190600 -0.089837
933.431400 0.148820
933.672300 -0.102445
933.913100 -0.211872
934.154000 0.769729
934.394900 -0.061544
934.635800 -0.051656
934.876600 -0.162514
935.117500 0.177524
935.358400 -0.138792
935.599300 -0.078325
935.840300 0.202082
936.081200 0.077617
936.322100 0.293150
936.563000 0.155800
936.804000 -0.020375
937.044900 -0.151448
937.285900 -0.341207
937.526900 0.117760
937.767800 0.265735
938.008800 0.355201
938.249800 0.643684
938.490800 0.041675
938.731800 0.177843
938.972800 0.251158
939.213800 -0.066176
939.454900 0.021771
939.695900 0.534728
939.936900 -0.056231
940.178000 -0.002540
940.419000 -0.201152
940.660100 -0.065146
940.901200 -0.038135
941.142200 -0.160637
941.383300 0.078703
941.624400 -0.164520
941.865500 -0.111074
942.106600 0.375023
942.347700 -0.215896
942.588900 -0.102023
942.830000 -0.025013
943.071100 1.001952
943.312300 0.509069
943.553400 -0.069020
943.794600 0.355463
944.035700 0.606613
944.276900 -0.273056
944.518100 0.481506
944.759300 3.391641
945.000500 -0.601737
945.241700 1.105999
945.482900 -0.142538
945.724100 0.474207
945.965300 -0.233988
946.206600 -0.296402
946.447800 -0.358928
946.689100 0.029839
946.930300 -0.029860
947.171600 0.254902
947.412800 2.472464
947.654100 -0.066061
947.895400 -0.113604
948.136700 0.106085
948.378000 -0.456339
948.619300 -0.292555
948.860600 3.265290
949.101900 0.055945
949.343300 -0.150192
949.584600 0.055107
949.825900 -0.165384
950.067300 0.355647
950.308600 -0.169616
950.550000 -0.218024
950.791400 -0.435390
951.032700 0.459439
951.274100 -0.213751
951.515500 -0.146379
951.756900 0.036485
951.998300 -0.039637
952.239800 0.605364
952.481200 0.335056
952.722600 -0.236563
952.964000 0.117004
953.205500 -0.156494
953.446900 -0.054149
953.688400 0.236026
953.929900 0.281541
954.171300 -1.541537
954.412800 0.023794
954.654300 0.851594
954.895800 0.286110
955.137300 0.113379
955.378800 0.014677
955.620300 -0.010347
955.861800 0.476915
956.103400 0.021668
956.344900 -0.201287
956.586500 -0.261105
956.828000 0.290673
957.069600 -0.116199
957.311100 -0.543151
957.552700 0.068691
957.794300 -0.061060
958.035900 0.080438
958.277500 -0.494462
958.519100 -0.075044
958.760700 0.178553
959.002300 -0.632832
959.243900 -0.055033
959.485600 -0.178703
959.727200 -0.028029
959.968800 -0.041916
960.210500 -0.294326
960.452200 2.141763
960.693800 -0.060925
960.935500 -1.672098
961.177200 0.179003
961.418900 -0.444045
961.660600 -0.403340
961.902300 -0.020428
962.144000 -0.266997
962.385700 2.791691
962.627400 3.115278
962.869200 -0.231034
963.110900 -0.425215
963.352700 0.034605
963.594400 0.245026
963.836200 0.520999
964.077900 0.441476
964.319700 0.165814
964.561500 0.235820
964.803300 3.139249
965.045100 -0.436417
965.286900 0.416942
965.528700 0.248705
965.770500 -0.063188
966.012300 -0.231436
966.254200 -0.312796
966.496000 0.102600
966.737900 0.156060
966.979700 0.229780
967.221600 -0.208791
967.463400 1.144167
967.705300 0.566828
967.947200 -0.499148
968.189100 -0.586712
968.431000 0.079787
968.672900 0.208305
968.914800 0.123321
969.156700 0.092828
969.398700 -0.571673
969.640600 -0.673042
969.882500 0.619038
970.124500 -0.010273
970.366400 0.050851
970.608400 -0.134279
970.850400 -0.279332
971.092300 0.057274
971.334300 0.511772
971.576300 1.183817
971.818300 0.183767
972.060300 3.062958
972.302300 0.122793
972.544300 -0.225272
972.786400 0.259546
973.028400 -0.194057
973.270400 -0.077830
973.512500 3.082426
973.754500 0.046869
973.996600 0.204472
974.238700 0.693619
974.480700 -0.116649
974.722800 0.242015
974.964900 -0.023923
975.207000 0.156568
975.449100 -0.451829
975.691200 -0.050372
975.933300 2.853698
976.175500 -3.082426
976.417600 1.636179
976.659700 0.016087
976.901900 1.182754
977.144000 0.067086
977.386200 -0.387185
977.628300 3.352761
977.870500 0.379581
978.112700 -0.488588
978.354900 -0.174391
978.597100 -0.358160
978.839300 0.447158
979.081500 0.025372
979.323700 -3.058805
979.565900 -0.461780
979.808200 -0.101507
980.050400 -0.094842
980.292600 0.149462
980.534900 0.382409
980.777100 0.681241
981.019400 -0.568368
981.261700 0.615663
981.504000 0.740363
981.746200 1.146128
981.988500 0.033255
982.230800 -0.389568
982.473100 -0.193575
982.715500 0.508740
982.957800 -0.389869
983.200100 2.990339
983.442400 0.049559
983.684800 2.799341
983.927100 0.705730
984.169500 0.333180
984.411800 0.455389
984.654200 -0.273805
984.896600 0.187363
985.139000 -1.478821
985.381400 0.162471
985.623800 0.843262
985.866200 0.584391
986.108600 0.000000
986.351000 -0.154867
986.593400 0.129120
986.835800 0.091936
987.078300 -0.236409
987.320700 0.094179
987.563200 2.700704
987.805600 -0.737315
988.048100 1.143887
988.290600 -0.085915
988.533100 0.000000
988.775600 0.205212
989.018000 0.579983
989.260500 -0.018127
989.503100 0.000000
989.745600 2.123852
989.988100 -2.819544
990.230600 1.258755
990.473200 1.520534
990.715700 0.514169
990.958200 -0.405672
991.200800 0.790832
991.443400 -2.535294
991.685900 -0.298057
991.928500 -2.585461
992.171100 -0.082187
992.413700 0.185788
992.656300 -0.122989
992.898900 0.091041
993.141500 -0.011448
993.384100 -0.004113
993.626700 0.909080
993.869400 2.760422
994.112000 0.851937
994.354700 0.246690
994.597300 -0.004032
994.840000 0.000000
995.082600 -0.246720
995.325300 -0.209054
995.568000 0.550342
995.810700 -0.706042
996.053400 -0.245311
996.296100 0.100642
996.538800 0.025936
996.781500 -0.158663
997.024200 2.049218
997.267000 -0.366973
997.509700 0.625572
997.752400 0.648064
997.995200 -0.053335
998.237900 2.701568
998.480700 -0.398945
998.723500 0.000000
998.966200 0.123021
999.209000 -3.097257
999.451800 0.157554
999.694600 0.373469
999.937400 2.318063
1000.180200 -0.218976
1000.423000 3.101403
1000.665900 0.024287
1000.908700 -0.708288
1001.151500 -0.179332
1001.394400 2.745075
1001.637200 1.406359
1001.880100 -1.700415
1002.123000 1.425133
1002.365800 0.645641
1002.608700 -0.602536
1002.851600 -0.153415
1003.094500 -0.147904
1003.337400 -0.557762
1003.580300 0.000000
1003.823200 -0.808523
1004.066100 0.761269
1004.309100 2.719331
1004.552000 3.008600
1004.794900 -0.375923
1005.037900 0.245706
1005.280800 -0.268271
1005.523800 0.058073
1005.766700 0.040394
1006.009700 0.757240
1006.252700 0.000000
1006.495700 0.365755
1006.738700 -2.960471
1006.981700 0.185721
1007.224700 2.653213
1007.467700 -1.095887
1007.710700 -0.423567
1007.953800 0.020647
1008.196800 0.009669
1008.439800 3.195346
1008.682900 2.691965
1008.925900 3.097604
1009.169000 2.884229
1009.412100 -2.833147
1009.655100 -0.951871
1009.898200 0.288683
1010.141300 -0.527501
1010.384400 -0.098761
1010.627500 0.309679
1010.870600 -0.012004
1011.113700 0.116013
1011.356800 -0.159802
1011.600000 -1.721324
1011.843100 -0.170419
1012.086300 -2.759668
1012.329400 0.532663
1012.572600 -2.759668
1012.815700 -0.298523
1013.058900 0.000000
1013.302100 -0.266322
1013.545200 2.960946
1013.788400 -0.069021
1014.031600 0.000000
1014.274800 0.466656
1014.518000 -0.015281
1014.761300 0.169362
1015.004500 -3.042576
1015.247700 2.940516
1015.490900 -2.871573
1015.734200 0.135313
1015.977400 2.450249
1016.220700 -3.058805
1016.464000 0.668398
1016.707200 2.190332
1016.950500 2.378398
1017.193800 -0.158750
1017.437100 2.562293
1017.680400 -0.040289
1017.923700 -0.032283
1018.167000 3.231724
1018.410300 -0.355242
1018.653600 0.241716
1018.896900 -0.325141
1019.140300 -0.324682
1019.383600 -0.232665
1019.627000 0.175605
1019.870300 -0.309863
1020.113700 0.064959
1020.357100 0.067332
1020.600400 2.853698
1020.843800 3.090258
1021.087200 3.287130
1021.330600 -2.334454
1021.574000 0.657477
1021.817400 -2.120574
1022.060800 0.000000
1022.304200 0.000000
1022.547700 2.902003
1022.791100 -0.795944
1023.034500 -0.127105
