# Wavelength	Absorbance
197.780200 2.878522
197.984200 2.907949
198.188200 0.917681
198.392200 2.682145
198.596300 2.935507
198.800300 2.318063
199.004400 2.918555
199.208500 0.759077
199.412600 2.776701
199.616800 2.768638
199.820900 2.465383
200.025100 2.877947
200.229200 2.463893
200.433400 3.008600
200.637600 2.745075
200.841800 2.902003
201.046100 1.074102
201.250300 1.329789
201.454600 1.044801
201.658900 0.234249
201.863100 0.490966
202.067400 0.825924
202.271800 0.352620
202.476100 -0.254844
202.680500 2.827369
202.884800 2.980458
203.089200 0.118175
203.293600 0.810576
203.498000 0.506744
203.702400 0.693007
203.906900 -1.106538
204.111300 -1.934498
204.315800 2.728354
204.520300 3.062958
204.724800 2.587711
204.929300 2.396199
205.133800 1.159273
205.338400 2.820201
205.543000 2.870404
205.747500 0.449149
205.952100 2.791691
206.156700 3.034628
206.361400 -2.988113
206.566000 -0.394543
206.770600 0.992111
206.975300 -0.875795
207.180000 0.845098
207.384700 0.146802
207.589400 -2.648360
207.794100 2.480007
207.998900 -0.466631
208.203600 3.152288
208.408400 -0.035654
208.613200 2.820201
208.818000 -0.191985
209.022800 2.414973
209.227600 2.820201
209.432500 2.907949
209.637300 2.752816
209.842200 2.294466
210.047100 2.798651
210.252000 2.053078
210.456900 3.086360
210.661800 0.450073
210.866800 0.107442
211.071800 3.104487
211.276700 0.259589
211.481700 2.736397
211.686700 -0.212020
211.891800 2.480007
212.096800 3.336260
212.301800 2.890421
212.506900 3.209783
212.712000 2.965672
212.917100 3.226342
213.122200 0.633291
213.327300 0.779983
213.532500 0.000000
213.737600 0.657047
213.942800 1.447158
214.148000 2.631444
214.353200 0.000000
214.558400 1.021670
214.763600 0.348836
214.968900 2.896526
215.174100 3.104487
215.379400 -2.283301
215.584700 2.846955
215.790000 -0.096000
215.995300 0.238138
216.200700 2.806180
216.406000 2.902003
216.611400 2.587711
216.816800 2.833784
217.022200 -0.066353
217.227600 3.086360
217.433000 2.536558
217.638400 3.047275
217.843900 2.700704
218.049400 -3.117603
218.254800 1.631628
218.460300 3.008600
218.665900 0.097829
218.871400 3.234517
219.076900 1.177425
219.282500 0.784855
219.488100 3.047275
219.693600 -0.194733
219.899200 0.298691
220.104900 3.055378
220.310500 2.158362
220.516100 -2.706718
220.721800 2.872156
220.927500 3.071145
221.133200 2.600973
221.338900 0.070773
221.544600 0.140238
221.750300 3.183555
221.956100 -0.089975
222.161800 2.338456
222.367600 2.913284
222.573400 0.202544
222.779200 -2.927370
222.985000 -2.029384
223.190900 0.310733
223.396700 2.621176
223.602600 0.159701
223.808500 -0.190974
224.014400 0.096302
224.220300 2.935507
224.426200 2.719331
224.632200 2.727541
224.838100 1.246968
225.044100 2.653213
225.250100 2.550228
225.456100 2.352183
225.662100 -0.456387
225.868100 2.127105
226.074200 0.456366
226.280200 0.000000
226.486300 2.846955
226.692400 0.000000
226.898500 0.433017
227.104600 -0.550011
227.310700 0.280705
227.516900 2.833784
227.723000 -0.382851
227.929200 3.252853
228.135400 2.773786
228.341600 2.622214
228.547800 0.367075
228.754100 0.597351
228.960300 2.245513
229.166600 -2.757396
229.372900 2.907949
229.579100 2.683047
229.785500 2.791691
229.991800 0.845098
230.198100 2.682145
230.404500 -0.477121
230.610800 -0.178523
230.817200 0.000000
231.023600 2.890421
231.230000 0.506956
231.436400 1.217790
231.642900 0.091136
231.849300 2.791691
232.055800 -0.432309
232.262300 3.280123
232.468800 1.959041
232.675300 -0.247334
232.881800 2.599883
233.088400 -0.057699
233.294900 -0.779170
233.501500 0.177727
233.708100 0.000000
233.914700 -0.511753
234.121300 0.000000
234.327900 -0.182340
234.534600 2.682145
234.741300 0.294831
234.947900 0.295487
235.154600 3.406199
235.361300 3.122544
235.568000 0.464509
235.774800 2.662758
235.981500 -0.575694
236.188300 0.000000
236.395100 0.716264
236.601800 0.000000
236.808700 1.599218
237.015500 0.144517
237.222300 -0.203968
237.429200 0.558572
237.636000 -0.095018
237.842900 1.851258
238.049800 2.918555
238.256700 2.653213
238.463600 3.063333
238.670600 2.669782
238.877500 0.173854
239.084500 0.000000
239.291500 0.409438
239.498500 0.311014
239.705500 0.139662
239.912500 -1.133539
240.119500 -0.716344
240.326600 -0.042664
240.533700 -2.741152
240.740700 2.621176
240.947800 0.458860
241.154900 3.059185
241.362100 3.108227
241.569200 2.632457
241.776400 2.698101
241.983500 0.676694
242.190700 3.206826
242.397900 0.000000
242.605100 -0.421222
242.812400 -0.477869
243.019600 3.242293
243.226900 1.348390
243.434100 2.913284
243.641400 0.408017
243.848700 0.836746
244.056000 -2.881955
244.263400 -0.149561
244.470700 3.082785
244.678100 0.155056
244.885400 0.100991
245.092800 -0.245225
245.300200 2.357935
245.507600 1.300624
245.715100 0.152673
245.922500 0.377765
246.130000 -1.510703
246.337500 0.352325
246.544900 -0.582438
246.752400 0.259398
246.960000 3.165244
247.167500 1.853645
247.375000 0.000000
247.582600 0.076814
247.790200 -0.896054
247.997800 3.025715
248.205400 0.934546
248.413000 0.084570
248.620600 2.727541
248.828300 3.270213
249.035900 3.030600
249.243600 0.511708
249.451300 0.634035
249.659000 0.786027
249.866700 3.168203
250.074500 0.287822
250.282200 3.189490
250.490000 3.021603
250.697800 -0.218624
250.905600 -0.447363
251.113400 0.523389
251.321200 2.736397
251.529000 2.008600
251.736900 -0.004878
251.944700 3.186674
252.152600 0.020076
252.360500 -0.134360
252.568400 0.080694
252.776300 2.397940
252.984300 0.008241
253.192200 2.985426
253.400200 0.041241
253.608200 2.599883
253.816200 0.558120
254.024200 2.872739
254.232200 -0.478788
254.440200 0.000000
254.648300 -0.124384
254.856400 0.144061
255.064400 0.369434
255.272500 3.097604
255.480600 0.547321
255.688800 0.000000
255.896900 -0.175821
256.105100 3.284882
256.313200 2.752816
256.521400 2.827369
256.729600 0.056766
256.937800 3.171434
257.146000 1.258550
257.354300 0.000000
257.562500 2.903090
257.770800 0.000000
257.979100 1.019255
258.187400 2.833784
258.395700 0.280012
258.604000 3.034628
258.812400 -0.029824
259.020700 1.382672
259.229100 3.093772
259.437500 1.162978
259.645900 -0.013272
259.854300 2.878522
260.062700 0.337313
260.271100 2.621176
260.479600 0.109491
260.688100 2.562293
260.896500 0.228367
261.105000 -0.779913
261.313500 -0.260779
261.522100 3.142702
261.730600 2.945961
261.939200 2.701568
262.147700 0.248743
262.356300 0.187568
262.564900 2.536558
262.773500 0.150015
262.982200 0.353905
263.190800 -2.968950
263.399500 0.173804
263.608100 -0.085487
263.816800 1.100130
264.025500 -0.628286
264.234200 2.158362
264.442900 2.053078
264.651700 3.097604
264.860400 2.662758
265.069200 -0.030195
265.278000 2.990339
265.486800 -0.175479
265.695600 -0.155056
265.904400 2.950851
266.113300 2.599883
266.322100 -0.002246
266.531000 -0.112074
266.739900 -0.712000
266.948800 3.125806
267.157700 0.143644
267.366600 3.055378
267.575500 0.058189
267.784500 -0.418721
267.993500 0.761761
268.202400 -0.146791
268.411400 0.218829
268.620500 2.761176
268.829500 -0.368911
269.038500 -0.481453
269.247600 0.473514
269.456600 2.008600
269.665700 2.965672
269.874800 2.907411
270.083900 0.410795
270.293100 -2.668386
270.502200 1.221715
270.711400 2.127105
270.920500 2.833784
271.129700 2.985426
271.338900 0.327442
271.548100 -0.213291
271.757300 3.030195
271.966600 2.890421
272.175800 0.871069
272.385100 3.132580
272.594400 0.229660
272.803700 3.021603
273.013000 0.566344
273.222300 2.994757
273.431600 0.033947
273.641000 0.582417
273.850400 -0.371784
274.059700 -0.192026
274.269100 0.250474
274.478500 2.950851
274.688000 3.183555
274.897400 2.866287
275.106900 -1.166331
275.316300 3.055378
275.525800 0.069684
275.735300 0.000000
275.944800 2.965672
276.154300 0.486667
276.363900 0.155505
276.573400 0.133388
276.783000 0.278143
276.992600 0.178569
277.202200 3.047275
277.411800 2.587711
277.621400 -0.313851
277.831000 3.118595
278.040700 0.283775
278.250300 2.820201
278.460000 2.935507
278.669700 2.980458
278.879400 2.432969
279.089100 1.330237
279.298900 0.242401
279.508600 0.420410
279.718400 -0.006441
279.928100 0.000000
280.137900 0.683894
280.347700 -0.336492
280.557600 0.187892
280.767400 3.039017
280.977200 -0.193423
281.187100 0.000000
281.397000 0.806604
281.606900 0.000000
281.816800 -0.141295
282.026700 2.056905
282.236600 -0.089483
282.446600 -0.171935
282.656500 -2.959041
282.866500 2.791691
283.076500 2.338456
283.286500 3.115278
283.496500 0.661384
283.706500 2.907411
283.916600 2.866287
284.126600 -1.561442
284.336700 2.966142
284.546800 2.587711
284.756900 3.025715
284.967000 2.896526
285.177100 3.042969
285.387300 -2.440909
285.597400 -0.281165
285.807600 2.127105
286.017800 0.569970
286.228000 0.000000
286.438200 3.171434
286.648400 2.940516
286.858700 0.107531
287.068900 2.760422
287.279200 2.846955
287.489500 2.414973
287.699800 3.158965
287.910100 2.621176
288.120400 3.047275
288.330800 -0.696346
288.541100 0.384004
288.751500 -0.387821
288.961900 -0.017649
289.172300 -2.503791
289.382700 0.115775
289.593100 2.913284
289.803500 0.000000
290.014000 0.652078
290.224500 0.271016
290.434900 0.000000
290.645400 -0.143467
290.855900 2.653213
291.066500 0.329224
291.277000 -0.407077
291.487500 0.044362
291.698100 2.768638
291.908700 0.309073
292.119300 0.730805
292.329900 3.042969
292.540500 0.170847
292.751100 0.111691
292.961800 0.000000
293.172400 0.244064
293.383100 -2.916454
293.593800 0.067387
293.804500 2.495544
294.015200 0.476667
294.226000 0.000000
294.436700 0.986427
294.647500 2.866287
294.858200 0.791515
295.069000 3.055378
295.279800 2.736397
295.490600 -2.503791
295.701500 0.390799
295.912300 3.082785
296.123200 0.716249
296.334000 2.719331
296.544900 0.378289
296.755800 3.220892
296.966700 -0.224058
297.177700 0.277575
297.388600 2.935003
297.599500 -0.833949
297.810500 0.721042
298.021500 3.149219
298.232500 0.082288
298.443500 -1.191759
298.654500 3.177536
298.865600 3.125806
299.076600 -0.605930
299.287700 -2.406540
299.498800 0.968128
299.709900 0.044670
299.921000 3.234517
300.132100 0.005599
300.343200 3.270446
300.554400 0.739994
300.765500 -0.340816
300.976700 0.000000
301.187900 0.928396
301.399100 2.813581
301.610300 3.129368
301.821500 0.268524
302.032800 -0.101529
302.244100 0.100997
302.455300 3.097604
302.666600 3.063333
302.877900 0.130128
303.089200 -0.547321
303.300600 3.209783
303.511900 2.970812
303.723300 -0.149072
303.934600 2.884795
304.146000 0.845098
304.357400 -0.070821
304.568800 0.105804
304.780300 3.192289
304.991700 2.784617
305.203100 -0.355524
305.414600 3.198382
305.626100 1.993436
305.837600 3.201124
306.049100 2.775974
306.260600 3.051153
306.472200 -0.585717
306.683700 2.945961
306.895300 -0.165964
307.106900 3.231724
307.318400 0.628088
307.530100 -0.062899
307.741700 2.806180
307.953300 3.332236
308.165000 0.000000
308.376600 3.265290
308.588300 3.242293
308.800000 3.034227
309.011700 0.711318
309.223400 0.052455
309.435100 2.450249
309.646900 2.840106
309.858600 0.822000
310.070400 0.759829
310.282200 -1.355616
310.494000 0.198285
310.705800 3.168203
310.917600 3.047275
311.129500 2.840106
311.341300 1.361947
311.553200 3.180413
311.765100 1.109865
311.977000 3.142702
312.188900 1.760816
312.400800 3.030600
312.612700 -0.307724
312.824700 3.292034
313.036600 0.576902
313.248600 3.332034
313.460600 2.698535
313.672600 3.275081
313.884600 0.192598
314.096700 2.599883
314.308700 0.344664
314.520800 3.104828
314.732800 0.585873
314.944900 3.146128
315.157000 0.589805
315.369200 0.641876
315.581300 -0.087476
315.793400 0.121734
316.005600 0.722551
316.217700 0.480674
316.429900 3.525174
316.642100 3.168203
316.854300 0.387054
317.066600 3.463445
317.278800 0.419753
317.491100 3.192289
317.703300 0.303238
317.915600 3.296446
318.127900 0.223043
318.340200 0.921513
318.552500 1.893545
318.764900 3.139249
318.977200 3.437592
319.189600 3.030195
319.401900 3.427324
319.614300 2.943989
319.826700 0.361059
320.039200 3.358886
320.251600 0.446080
320.464000 3.336260
320.676500 0.232268
320.889000 2.465383
321.101400 0.267541
321.313900 3.310268
321.526500 0.443448
321.739000 0.935668
321.951500 3.472903
322.164100 0.527275
322.376600 3.460447
322.589200 3.362859
322.801800 0.196470
323.014400 3.360972
323.227000 0.160362
323.439700 3.437433
323.652300 3.471292
323.865000 1.561835
324.077700 0.340888
324.290400 0.941053
324.503100 0.508761
324.715800 3.399154
324.928500 3.425697
325.141200 3.384174
325.354000 3.583765
325.566800 0.886084
325.779600 0.534603
325.992400 0.709405
326.205200 1.608078
326.418000 1.298271
326.630800 3.581495
326.843700 3.659250
327.056600 3.478999
327.269400 3.416973
327.482300 3.531990
327.695200 0.803900
327.908200 0.520282
328.121100 3.453930
328.334000 0.575489
328.547000 3.636688
328.760000 3.502700
328.973000 3.277953
329.186000 3.564311
329.399000 1.117536
329.612000 3.715669
329.825100 1.841701
330.038100 3.534534
330.251200 3.572872
330.464300 1.076234
330.677400 0.928766
330.890500 1.926738
331.103600 3.526469
331.316700 0.993610
331.529900 3.658298
331.743100 0.605242
331.956200 0.628318
332.169400 0.608887
332.382600 3.520876
332.595900 0.734133
332.809100 3.604766
333.022300 3.595606
333.235600 3.633468
333.448900 1.073171
333.662200 3.609381
333.875500 3.666331
334.088800 3.518251
334.302100 0.781479
334.515400 0.815860
334.728800 0.419154
334.942200 3.626956
335.155500 3.580241
335.368900 1.225385
335.582300 3.640879
335.795800 3.676968
336.009200 1.095463
336.222700 3.666237
336.436100 0.908354
336.649600 1.467570
336.863100 0.737533
337.076600 3.787035
337.290100 0.938614
337.503600 1.388797
337.717200 1.255499
337.930700 1.546625
338.144300 3.781037
338.357900 1.721791
338.571500 0.699890
338.785100 3.703205
338.998700 0.801211
339.212400 0.998408
339.426000 1.479148
339.639700 0.785311
339.853300 1.234115
340.067000 1.334848
340.280700 3.765594
340.494500 1.682864
340.708200 3.745543
340.921900 3.796644
341.135700 1.110364
341.349500 1.290357
341.563300 3.781827
341.777100 0.820707
341.990900 3.831166
342.204700 1.167682
342.418500 3.869232
342.632400 3.830460
342.846300 1.904665
343.060100 3.693023
343.274000 1.648945
343.487900 1.223388
343.701900 1.765801
343.915800 3.793022
344.129700 3.873611
344.343700 3.778006
344.557700 0.735459
344.771700 3.809694
344.985700 0.841150
345.199700 3.834484
345.413700 1.120745
345.627700 3.783332
345.841800 0.752918
346.055900 3.854124
346.269900 3.868644
346.484000 3.898615
346.698100 1.649594
346.912300 1.109188
347.126400 1.164860
347.340600 0.802949
347.554700 3.883264
347.768900 3.886321
347.983100 3.942058
348.197300 3.889246
348.411500 0.777409
348.625700 3.866760
348.840000 3.898615
349.054200 3.926085
349.268500 3.952889
349.482800 3.888011
349.697100 1.180483
349.911400 3.877832
350.125700 1.040753
350.340000 3.937869
350.554400 3.966001
350.768700 3.912806
350.983100 3.917820
351.197500 1.086472
351.411900 3.984437
351.626300 1.213766
351.840700 3.963032
352.055200 3.931966
352.269600 0.909865
352.484100 3.950851
352.698600 3.990072
352.913100 1.139461
353.127600 1.344988
353.342100 2.013768
353.556600 1.521957
353.771200 1.300817
353.985800 1.295283
354.200300 3.930898
354.414900 3.981093
354.629500 1.674146
354.844100 1.136941
355.058800 0.777364
355.273400 1.738373
355.488100 1.216084
355.702700 0.637147
355.917400 3.938920
356.132100 1.046578
356.346800 1.612784
356.561500 3.703334
356.776300 3.974327
356.991000 1.398586
357.205800 3.987264
357.420600 0.990816
357.635300 3.982045
357.850100 4.018617
358.065000 3.991935
358.279800 3.980549
358.494600 1.553455
358.709500 4.012879
358.924300 3.975799
359.139200 4.039216
359.354100 3.988202
359.569000 4.007534
359.783900 3.987264
359.998900 0.819477
360.213800 3.718917
360.428800 1.424257
360.643800 3.982497
360.858700 0.822959
361.073700 1.298897
361.288800 4.042142
361.503800 4.026452
361.718800 1.762200
361.933900 1.151991
362.148900 4.016866
362.364000 3.994713
362.579100 1.084208
362.794200 4.002986
363.009300 1.314854
363.224500 1.324489
363.439600 1.065239
363.654800 4.034989
363.869900 0.946817
364.085100 1.041310
364.300300 0.777178
364.515500 4.049102
364.730800 1.169083
364.946000 4.055608
365.161200 4.048325
365.376500 4.086360
365.591800 1.223575
365.807100 4.020403
366.022400 4.056447
366.237700 4.078022
366.453000 4.118562
366.668400 4.089375
366.883700 4.063634
367.099100 4.077622
367.314500 1.458602
367.529900 1.280302
367.745300 4.114678
367.960700 4.089375
368.176100 1.368795
368.391600 1.060457
368.607000 4.134305
368.822500 4.111901
369.038000 4.150173
369.253500 4.100405
369.469000 4.123721
369.684500 4.136974
369.900100 1.109394
370.115600 1.151472
370.331200 2.284934
370.546800 0.993419
370.762400 1.273933
370.978000 2.295076
371.193600 1.476985
371.409200 4.124798
371.624900 0.810461
371.840500 4.181129
372.056200 4.129561
372.271900 1.359977
372.487600 4.180183
372.703300 4.129915
372.919000 1.087256
373.134800 4.137671
373.350500 1.217181
373.566300 2.220139
373.782000 1.266947
373.997800 4.169498
374.213600 1.519577
374.429400 1.519253
374.645300 4.204906
374.861100 1.071103
375.077000 1.661256
375.292800 4.182329
375.508700 1.487965
375.724600 4.210586
375.940500 4.218404
376.156400 4.224455
376.372400 1.325914
376.588300 1.080680
376.804300 1.265770
377.020300 2.014584
377.236200 1.364564
377.452200 4.269816
377.668200 4.261620
377.884300 1.415880
378.100300 4.253265
378.316400 2.478966
378.532400 1.174813
378.748500 4.301356
378.964600 2.079456
379.180700 1.391940
379.396800 4.318189
379.612900 4.277861
379.829100 4.308394
380.045200 1.728253
380.261400 4.315991
380.477600 4.319085
380.693800 4.279302
380.910000 4.341138
381.126200 4.287174
381.342400 4.319959
381.558700 1.316869
381.774900 4.288607
381.991200 4.304318
382.207500 1.365766
382.423800 4.339054
382.640100 2.058252
382.856400 1.252491
383.072800 4.319502
383.289100 1.878286
383.505500 4.335458
383.721900 4.350442
383.938200 4.339471
384.154600 4.345099
384.371100 4.337779
384.587500 4.348791
384.803900 4.366890
385.020400 1.461747
385.236800 4.356332
385.453300 1.705922
385.669800 4.340702
385.886300 1.303079
386.102800 1.990904
386.319400 1.405610
386.535900 4.371972
386.752500 2.019365
386.969000 2.039293
387.185600 1.179710
387.402200 1.431260
387.618800 1.462053
387.835500 4.396356
388.052100 4.417721
388.268700 4.104624
388.485400 1.508998
388.702100 1.708189
388.918800 1.775016
389.135500 1.772684
389.352200 1.896592
389.568900 1.311073
389.785600 1.361762
390.002400 2.015979
390.219200 1.176553
390.435900 4.410828
390.652700 1.069340
390.869500 1.402578
391.086300 2.499367
391.303200 1.397795
391.520000 1.224007
391.736900 1.474557
391.953700 1.366218
392.170600 1.839723
392.387500 1.191187
392.604400 1.794043
392.821300 1.764779
393.038300 1.324270
393.255200 1.211440
393.472200 1.317593
393.689100 1.603829
393.906100 1.490884
394.123100 1.214663
394.340100 1.339493
394.557200 1.886003
394.774200 1.354049
394.991200 1.500062
395.208300 1.158560
395.425400 1.046754
395.642500 1.089120
395.859600 1.035282
396.076700 1.249664
396.293800 1.112893
396.510900 1.054830
396.728100 1.045497
396.945300 1.117850
397.162400 1.199399
397.379600 1.151663
397.596800 0.901644
397.814000 1.284271
398.031300 1.333767
398.248500 1.069055
398.465800 0.984930
398.683000 1.075063
398.900300 1.023605
399.117600 1.004402
399.334900 0.920944
399.552200 1.091306
399.769600 1.114810
399.986900 1.035610
400.204300 0.986235
400.421600 0.988819
400.639000 0.785417
400.856400 0.844264
401.073800 0.808802
401.291200 0.873564
401.508700 0.803641
401.726100 0.789814
401.943600 0.818996
402.161000 0.779388
402.378500 0.905535
402.596000 0.752065
402.813500 0.844819
403.031000 0.813868
403.248600 0.717807
403.466100 0.822932
403.683700 0.786255
403.901300 0.847633
404.118900 0.715506
404.336500 0.917673
404.554100 0.745909
404.771700 0.727417
404.989300 0.704577
405.207000 0.703526
405.424600 0.695458
405.642300 0.824572
405.860000 0.762897
406.077700 0.727468
406.295400 0.678040
406.513100 0.776176
406.730900 0.665657
406.948600 0.729066
407.166400 0.712896
407.384200 0.712438
407.602000 0.628483
407.819800 0.787408
408.037600 0.634341
408.255400 0.600643
408.473300 0.661966
408.691100 0.681735
408.909000 0.611103
409.126900 0.654957
409.344800 0.625979
409.562700 0.701209
409.780600 0.584034
409.998500 0.565728
410.216500 0.571436
410.434400 0.606347
410.652400 0.587548
410.870400 0.754178
411.088400 0.627441
411.306400 0.571823
411.524400 0.567382
411.742400 0.581907
411.960500 0.571558
412.178500 0.592478
412.396600 0.623161
412.614700 0.542206
412.832800 0.523671
413.050900 0.695702
413.269000 0.543211
413.487100 0.603422
413.705300 0.551356
413.923400 0.551976
414.141600 0.469909
414.359800 0.551613
414.578000 0.569341
414.796200 0.502693
415.014400 0.508493
415.232600 0.606203
415.450900 0.495664
415.669200 0.557788
415.887400 0.510296
416.105700 0.560973
416.324000 0.501144
416.542300 0.507919
416.760600 0.455554
416.979000 0.518134
417.197300 0.510092
417.415700 0.459029
417.634100 0.429310
417.852400 0.417217
418.070800 0.423938
418.289300 0.490273
418.507700 0.508106
418.726100 0.445926
418.944600 0.418176
419.163000 0.552007
419.381500 0.442152
419.600000 0.453364
419.818500 0.373221
420.037000 0.399338
420.255500 0.414860
420.474100 0.458717
420.692600 0.427502
420.911200 0.466765
421.129800 0.455676
421.348300 0.471121
421.566900 0.450328
421.785600 0.427998
422.004200 0.399770
422.222800 0.369076
422.441500 0.431679
422.660100 0.381996
422.878800 0.378988
423.097500 0.369477
423.316200 0.384203
423.534900 0.415342
423.753600 0.363240
423.972400 0.375949
424.191100 0.356749
424.409900 0.416504
424.628700 0.345454
424.847500 0.391191
425.066300 0.354353
425.285100 0.380939
425.503900 0.311351
425.722800 0.369483
425.941600 0.360342
426.160500 0.349590
426.379300 0.358142
426.598200 0.357761
426.817100 0.370806
427.036100 0.392720
427.255000 0.406131
427.473900 0.391661
427.692900 0.420297
427.911800 0.363285
428.130800 0.357799
428.349800 0.354124
428.568800 0.385511
428.787800 0.392445
429.006800 0.383575
429.225900 0.368452
429.444900 0.403810
429.664000 0.395724
429.883100 0.396066
430.102200 0.374052
430.321300 0.343816
430.540400 0.389326
430.759500 0.368366
430.978700 0.361310
431.197800 0.330109
431.417000 0.308727
431.636200 0.297603
431.855300 0.340519
432.074500 0.325414
432.293800 0.300931
432.513000 0.391697
432.732200 0.322572
432.951500 0.336282
433.170700 0.356537
433.390000 0.380176
433.609300 0.373236
433.828600 0.398049
434.047900 0.376348
434.267300 0.351164
434.486600 0.302733
434.705900 0.356623
434.925300 0.344185
435.144700 0.339816
435.364100 0.348463
435.583500 0.344988
435.802900 0.306172
436.022300 0.307650
436.241800 0.338712
436.461200 0.393374
436.680700 0.342289
436.900100 0.287804
437.119600 0.379476
437.339100 0.339801
437.558600 0.319299
437.778200 0.305764
437.997700 0.341178
438.217300 0.364385
438.436800 0.331740
438.656400 0.353661
438.876000 0.342902
439.095600 0.345810
439.315200 0.363027
439.534800 0.328129
439.754500 0.346931
439.974100 0.336176
440.193800 0.342024
440.413500 0.346519
440.633100 0.343745
440.852800 0.363336
441.072500 0.358891
441.292300 0.365542
441.512000 0.387299
441.731800 0.369498
441.951500 0.376838
442.171300 0.358489
442.391100 0.364788
442.610900 0.341252
442.830700 0.338083
443.050500 0.352384
443.270300 0.354529
443.490200 0.372171
443.710100 0.389511
443.929900 0.357126
444.149800 0.338873
444.369700 0.330821
444.589600 0.368829
444.809500 0.317932
445.029500 0.408721
445.249400 0.359380
445.469400 0.366787
445.689400 0.355966
445.909300 0.371735
446.129300 0.396353
446.349300 0.386046
446.569400 0.367121
446.789400 0.365043
447.009400 0.365693
447.229500 0.367100
447.449600 0.394506
447.669600 0.346273
447.889700 0.379726
448.109800 0.360268
448.330000 0.383142
448.550100 0.374828
448.770200 0.419866
448.990400 0.381830
449.210600 0.383551
449.430700 0.379070
449.650900 0.394212
449.871100 0.416770
450.091400 0.395964
450.311600 0.417947
450.531800 0.351908
450.752100 0.423697
450.972400 0.351723
451.192600 0.381499
451.412900 0.415848
451.633200 0.392080
451.853500 0.402904
452.073900 0.429257
452.294200 0.436426
452.514600 0.410145
452.734900 0.378774
452.955300 0.402476
453.175700 0.400574
453.396100 0.436256
453.616500 0.438215
453.836900 0.459972
454.057400 0.440945
454.277800 0.425366
454.498300 0.381766
454.718800 0.449346
454.939300 0.389895
455.159700 0.456461
455.380300 0.430955
455.600800 0.457039
455.821300 0.451961
456.041900 0.408988
456.262400 0.419195
456.483000 0.405202
456.703600 0.414628
456.924200 0.456398
457.144800 0.433150
457.365400 0.513258
457.586000 0.467682
457.806700 0.475197
458.027400 0.510106
458.248000 0.524041
458.468700 0.446272
458.689400 0.492672
458.910100 0.466399
459.130800 0.500241
459.351600 0.447954
459.572300 0.500590
459.793100 0.504557
460.013800 0.518973
460.234600 0.490106
460.455400 0.473475
460.676200 0.478525
460.897000 0.456550
461.117800 0.502821
461.338700 0.487197
461.559500 0.502911
461.780400 0.520851
462.001300 0.475036
462.222200 0.480912
462.443100 0.476565
462.664000 0.511159
462.884900 0.510481
463.105900 0.550063
463.326800 0.599424
463.547800 0.592365
463.768700 0.587139
463.989700 0.577310
464.210700 0.562973
464.431700 0.560946
464.652800 0.576014
464.873800 0.594334
465.094800 0.586212
465.315900 0.614349
465.537000 0.569359
465.758100 0.661581
465.979200 0.552495
466.200300 0.522208
466.421400 0.598523
466.642500 0.600871
466.863700 0.644417
467.084800 0.560523
467.306000 0.618761
467.527200 0.653567
467.748400 0.696025
467.969600 0.642746
468.190800 0.683427
468.412000 0.633793
468.633300 0.681932
468.854500 0.623446
469.075800 0.646764
469.297000 0.678005
469.518300 0.603353
469.739600 0.553784
469.961000 0.661605
470.182300 0.617550
470.403600 0.598655
470.625000 0.637114
470.846300 0.694287
471.067700 0.703540
471.289100 0.783494
471.510500 0.694406
471.731900 0.670376
471.953300 0.729672
472.174800 0.718297
472.396200 0.613703
472.617700 0.700026
472.839100 0.679409
473.060600 0.783330
473.282100 0.735278
473.503600 0.704041
473.725100 0.748529
473.946700 0.724914
474.168200 0.668532
474.389800 0.769829
474.611300 0.746431
474.832900 0.739942
475.054500 0.845631
475.276100 0.750689
475.497700 0.776158
475.719300 0.779241
475.941000 0.767191
476.162600 0.768123
476.384300 0.798940
476.606000 0.771417
476.827700 0.835319
477.049400 0.876224
477.271100 0.839636
477.492800 0.851218
477.714500 0.840471
477.936300 0.924260
478.158000 0.810157
478.379800 0.935319
478.601600 0.832554
478.823400 0.894715
479.045200 0.835805
479.267000 0.898297
479.488800 0.828614
479.710700 0.937485
479.932500 0.882692
480.154400 0.875675
480.376300 0.933645
480.598200 0.901779
480.820100 0.862391
481.042000 0.848663
481.263900 0.893022
481.485900 0.876062
481.707800 0.824526
481.929800 0.898354
482.151700 0.944189
482.373700 0.940325
482.595700 0.863100
482.817700 0.933459
483.039800 0.987008
483.261800 0.930097
483.483800 1.034095
483.705900 0.818188
483.928000 0.935059
484.150100 1.023370
484.372100 1.032396
484.594300 1.041235
484.816400 1.005378
485.038500 0.958952
485.260600 1.071429
485.482800 1.159643
485.705000 1.230615
485.927100 1.229838
486.149300 1.054567
486.371500 0.955807
486.593700 0.914529
486.816000 0.981382
487.038200 1.001333
487.260500 0.997428
487.482700 0.993897
487.705000 0.909866
487.927300 1.046757
488.149600 1.027091
488.371900 0.951960
488.594200 1.005308
488.816500 0.968019
489.038900 1.185843
489.261200 1.038413
489.483600 1.158859
489.706000 0.949848
489.928400 1.045538
490.150800 1.117579
490.373200 1.160403
490.595600 1.224030
490.818000 1.215225
491.040500 1.062225
491.263000 1.112191
491.485400 1.091603
491.707900 1.072933
491.930400 1.103438
492.152900 1.118035
492.375500 1.196472
492.598000 1.225569
492.820500 1.073642
493.043100 1.119295
493.265700 1.261397
493.488200 1.143377
493.710800 1.053303
493.933400 1.191296
494.156100 1.198600
494.378700 1.252821
494.601300 1.188277
494.824000 1.501848
495.046600 1.176227
495.269300 1.297714
495.492000 1.126696
495.714700 1.115279
495.937400 1.100967
496.160100 1.246753
496.382900 1.102632
496.605600 1.141006
496.828400 1.266388
497.051100 1.142528
497.273900 1.252887
497.496700 1.079835
497.719500 1.062025
497.942300 1.134273
498.165200 1.027971
498.388000 1.247927
498.610900 1.075942
498.833700 1.247707
499.056600 1.286343
499.279500 1.185547
499.502400 1.077274
499.725300 1.052463
499.948200 1.518713
500.171200 1.361043
500.394100 1.328959
500.617100 1.308681
500.840000 1.252681
501.063000 1.546837
501.286000 1.089080
501.509000 1.207221
501.732000 1.101955
501.955100 1.159936
502.178100 1.273054
502.401200 1.228071
502.624200 1.225452
502.847300 1.107517
503.070400 1.433601
503.293500 1.205458
503.516600 1.113792
503.739700 1.353433
503.962800 1.134067
504.186000 1.455222
504.409200 1.081661
504.632300 1.298970
504.855500 1.316658
505.078700 1.417064
505.301900 1.183369
505.525100 1.245509
505.748300 1.348920
505.971600 1.430725
506.194800 1.144700
506.418100 1.290369
506.641400 1.235925
506.864700 1.142828
507.088000 1.170378
507.311300 1.141335
507.534600 1.052079
507.757900 1.541411
507.981300 1.164220
508.204600 1.371767
508.428000 1.235206
508.651400 1.209245
508.874800 1.282719
509.098200 1.235899
509.321600 1.167911
509.545000 1.341131
509.768500 1.211812
509.991900 1.308634
510.215400 1.160681
510.438800 1.273702
510.662300 1.178341
510.885800 1.185335
511.109300 1.240145
511.332900 1.318457
511.556400 1.239011
511.779900 1.316158
512.003500 1.189913
512.227000 1.474537
512.450600 1.126996
512.674200 1.588260
512.897800 1.191289
513.121400 1.449336
513.345100 1.609692
513.568700 1.402597
513.792300 1.150340
514.016000 1.457793
514.239700 1.005662
514.463400 1.215118
514.687100 1.154242
514.910800 1.115472
515.134500 1.169145
515.358200 1.152290
515.581900 1.197091
515.805700 1.315132
516.029500 1.419949
516.253200 1.279995
516.477000 1.249924
516.700800 1.156285
516.924600 1.050927
517.148500 1.242374
517.372300 0.986829
517.596100 1.164818
517.820000 1.091232
518.043900 1.106702
518.267700 0.984487
518.491600 1.352302
518.715500 1.024831
518.939500 1.325468
519.163400 1.049458
519.387300 1.166252
519.611300 1.011583
519.835200 1.429355
520.059200 1.390565
520.283200 1.154398
520.507200 1.132114
520.731200 1.112566
520.955200 1.216619
521.179200 1.254571
521.403300 1.067467
521.627300 1.145958
521.851400 1.050935
522.075500 1.295851
522.299600 1.029904
522.523700 1.474134
522.747800 1.047943
522.971900 1.029620
523.196000 1.193940
523.420200 1.041668
523.644300 1.098527
523.868500 0.995589
524.092700 1.139007
524.316900 0.901597
524.541100 1.075879
524.765300 0.942496
524.989500 0.949379
525.213800 0.993812
525.438000 1.165925
525.662300 1.152072
525.886500 1.119278
526.110800 0.941015
526.335100 1.085944
526.559400 0.945990
526.783700 1.039543
527.008100 1.095635
527.232400 0.862852
527.456800 0.889602
527.681100 0.984372
527.905500 0.993170
528.129900 0.986475
528.354300 0.878261
528.578700 1.032122
528.803100 0.943280
529.027600 0.903004
529.252000 0.929543
529.476500 0.941288
529.700900 0.912529
529.925400 1.031905
530.149900 0.901792
530.374400 1.008361
530.598900 0.870099
530.823400 0.945688
531.048000 0.933402
531.272500 0.964429
531.497100 0.847675
531.721700 1.025917
531.946200 0.904732
532.170800 0.902790
532.395400 0.863725
532.620000 0.835250
532.844700 0.866671
533.069300 0.925927
533.294000 0.776682
533.518600 0.888616
533.743300 0.806299
533.968000 0.822929
534.192700 0.832894
534.417400 0.832348
534.642100 0.779806
534.866800 0.708694
535.091600 0.753988
535.316300 0.803423
535.541100 0.762599
535.765900 0.808123
535.990700 0.729719
536.215500 0.867716
536.440300 0.741619
536.665100 0.764488
536.889900 0.742467
537.114800 0.703990
537.339600 0.669701
537.564500 0.849366
537.789400 0.729867
538.014300 0.751720
538.239200 0.779500
538.464100 0.742382
538.689000 0.724021
538.913900 0.750549
539.138900 0.717521
539.363800 0.762108
539.588800 0.726296
539.813800 0.734138
540.038800 0.647138
540.263800 0.704351
540.488800 0.671402
540.713800 0.718912
540.938900 0.632439
541.163900 0.603931
541.389000 0.669061
541.614000 0.629757
541.839100 0.610578
542.064200 0.690320
542.289300 0.627605
542.514400 0.633389
542.739600 0.678315
542.964700 0.633816
543.189900 0.603073
543.415000 0.572250
543.640200 0.620944
543.865400 0.669507
544.090600 0.548995
544.315800 0.622456
544.541000 0.568044
544.766200 0.574753
544.991500 0.569161
545.216700 0.559015
545.442000 0.594756
545.667300 0.573823
545.892600 0.510098
546.117900 0.562330
546.343200 0.542743
546.568500 0.538849
546.793800 0.547818
547.019200 0.520375
547.244500 0.483023
547.469900 0.553208
547.695300 0.528894
547.920600 0.572136
548.146000 0.513365
548.371500 0.493848
548.596900 0.493297
548.822300 0.463422
549.047800 0.497114
549.273200 0.423276
549.498700 0.417754
549.724200 0.446039
549.949600 0.425558
550.175100 0.438586
550.400700 0.468385
550.626200 0.491789
550.851700 0.441505
551.077300 0.430204
551.302800 0.385972
551.528400 0.406570
551.754000 0.475397
551.979600 0.482951
552.205200 0.470736
552.430800 0.413907
552.656400 0.383108
552.882000 0.403522
553.107700 0.400031
553.333300 0.439216
553.559000 0.385411
553.784700 0.398922
554.010400 0.382233
554.236100 0.374037
554.461800 0.354908
554.687500 0.374233
554.913200 0.308103
555.139000 0.338766
555.364800 0.357938
555.590500 0.386959
555.816300 0.360702
556.042100 0.370229
556.267900 0.361980
556.493700 0.324618
556.719500 0.301030
556.945400 0.348652
557.171200 0.343207
557.397100 0.342623
557.623000 0.312941
557.848800 0.298310
558.074700 0.324254
558.300600 0.330456
558.526600 0.286719
558.752500 0.282613
558.978400 0.270627
559.204400 0.302974
559.430300 0.299889
559.656300 0.317517
559.882300 0.304290
560.108300 0.350052
560.334300 0.283965
560.560300 0.286084
560.786300 0.295813
561.012400 0.284705
561.238400 0.279453
561.464500 0.258677
561.690500 0.256699
561.916600 0.229923
562.142700 0.233649
562.368800 0.257756
562.594900 0.255430
562.821100 0.284718
563.047200 0.264322
563.273300 0.260083
563.499500 0.233968
563.725700 0.272914
563.951900 0.226618
564.178100 0.240815
564.404300 0.243214
564.630500 0.240528
564.856700 0.224904
565.082900 0.251130
565.309200 0.207080
565.535500 0.218401
565.761700 0.195788
565.988000 0.207863
566.214300 0.219600
566.440600 0.189021
566.666900 0.203736
566.893200 0.221407
567.119600 0.216341
567.345900 0.227312
567.572300 0.220874
567.798700 0.206647
568.025000 0.181556
568.251400 0.220389
568.477800 0.189912
568.704300 0.212818
568.930700 0.197875
569.157100 0.196301
569.383600 0.205300
569.610000 0.220193
569.836500 0.220962
570.063000 0.200326
570.289500 0.190800
570.516000 0.179906
570.742500 0.162691
570.969000 0.193602
571.195600 0.184522
571.422100 0.181471
571.648700 0.156060
571.875200 0.179614
572.101800 0.173803
572.328400 0.160504
572.555000 0.116030
572.781600 0.127852
573.008200 0.146642
573.234900 0.180163
573.461500 0.188015
573.688200 0.160340
573.914900 0.150323
574.141500 0.155475
574.368200 0.161467
574.594900 0.150091
574.821600 0.142264
575.048400 0.140846
575.275100 0.141876
575.501800 0.144216
575.728600 0.118864
575.955400 0.103951
576.182100 0.136648
576.408900 0.143659
576.635700 0.149369
576.862600 0.146122
577.089400 0.131029
577.316200 0.127260
577.543100 0.130079
577.769900 0.167145
577.996800 0.140312
578.223700 0.109648
578.450500 0.083097
578.677400 0.088767
578.904400 0.090979
579.131300 0.087438
579.358200 0.110440
579.585100 0.116853
579.812100 0.119992
580.039100 0.102474
580.266000 0.092170
580.493000 0.091169
580.720000 0.086799
580.947000 0.110737
581.174100 0.167318
581.401100 0.178104
581.628100 0.136104
581.855200 0.097568
582.082200 0.084178
582.309300 0.068932
582.536400 0.058583
582.763500 0.042742
582.990600 0.045433
583.217700 0.051364
583.444900 0.047826
583.672000 0.051817
583.899100 0.071481
584.126300 0.075431
584.353500 0.082382
584.580700 0.065253
584.807900 0.107457
585.035100 0.107737
585.262300 0.101803
585.489500 0.080914
585.716700 0.072684
585.944000 0.066143
586.171300 0.049418
586.398500 0.044319
586.625800 0.053454
586.853100 0.079517
587.080400 0.084553
587.307700 0.081687
587.535000 0.079591
587.762400 0.052834
587.989700 0.043608
588.217100 0.046594
588.444500 0.065618
588.671800 0.051998
588.899200 0.042012
589.126600 0.031811
589.354000 0.036889
589.581500 0.057108
589.808900 0.054589
590.036300 0.068322
590.263800 0.043040
590.491300 0.036382
590.718700 0.048513
590.946200 0.027826
591.173700 0.031364
591.401200 0.053852
591.628800 0.069408
591.856300 0.050803
592.083800 0.049756
592.311400 0.065172
592.538900 0.107023
592.766500 0.147771
592.994100 0.089994
593.221700 0.071572
593.449300 0.058159
593.676900 0.046635
593.904600 0.038197
594.132200 0.032805
594.359800 0.025148
594.587500 0.050194
594.815200 0.068528
595.042900 0.082584
595.270500 0.063590
595.498300 0.035288
595.726000 0.034964
595.953700 0.022341
596.181400 0.019700
596.409200 0.011680
596.636900 0.028756
596.864700 0.046386
597.092500 0.057720
597.320300 0.064225
597.548100 0.051043
597.775900 0.050296
598.003700 0.030232
598.231500 0.041116
598.459400 0.051311
598.687200 0.093372
598.915100 0.115945
599.143000 0.072501
599.370900 0.045145
599.598800 0.034632
599.826700 0.040745
600.054600 0.064703
600.282500 0.050686
600.510500 0.038827
600.738400 0.024853
600.966400 0.044374
601.194400 0.040250
601.422300 0.030939
601.650300 0.021822
601.878300 0.024755
602.106400 0.030473
602.334400 0.029646
602.562400 0.045766
602.790500 0.047372
603.018500 0.041614
603.246600 0.055244
603.474700 0.058183
603.702800 0.049046
603.930900 0.029854
604.159000 0.024609
604.387100 0.028697
604.615200 0.015992
604.843400 0.021064
605.071500 0.027333
605.299700 0.025504
605.527900 0.041230
605.756100 0.055142
605.984300 0.043028
606.212500 0.014831
606.440700 -0.000938
606.668900 0.004387
606.897200 0.013172
607.125400 0.025654
607.353700 0.027145
607.581900 0.030037
607.810200 0.015356
608.038500 0.016789
608.266800 -0.000352
608.495100 0.003796
608.723500 0.009506
608.951800 0.021373
609.180100 -0.001216
609.408500 0.015915
609.636900 0.019058
609.865300 0.042477
610.093600 0.052562
610.322000 0.036908
610.550500 0.017092
610.778900 0.010084
611.007300 0.017333
611.235700 0.022711
611.464200 0.029490
611.692700 0.023673
611.921100 0.020166
612.149600 0.002484
612.378100 0.008591
612.606600 0.020008
612.835100 0.036437
613.063700 0.024976
613.292200 0.024523
613.520800 0.026002
613.749300 0.029073
613.977900 0.027947
614.206500 0.013816
614.435100 0.022339
614.663700 0.023762
614.892300 0.013580
615.120900 0.008385
615.349500 0.032483
615.578200 0.033492
615.806800 0.020700
616.035500 0.003038
616.264200 -0.000095
616.492900 0.000657
616.721600 0.017559
616.950300 0.006956
617.179000 0.014625
617.407700 0.021393
617.636500 0.016887
617.865200 0.021941
618.094000 0.029798
618.322700 0.008774
618.551500 -0.020775
618.780300 -0.020776
619.009100 -0.014352
619.237900 0.015321
619.466700 0.014163
619.695600 0.017290
619.924400 0.039625
620.153300 0.042093
620.382100 0.029363
620.611000 -0.000505
620.839900 -0.023332
621.068800 -0.038887
621.297700 -0.018886
621.526600 0.003918
621.755600 0.034757
621.984500 0.042668
622.213500 0.022589
622.442400 0.026054
622.671400 0.039938
622.900400 0.012465
623.129400 0.036321
623.358400 0.019228
623.587400 0.016557
623.816400 -0.011990
624.045400 0.013753
624.274500 0.038128
624.503500 0.021161
624.732600 0.016937
624.961700 0.022016
625.190800 -0.001090
625.419900 -0.017755
625.649000 0.004257
625.878100 -0.002472
626.107200 -0.004102
626.336400 -0.004437
626.565500 0.000092
626.794700 -0.004735
627.023800 -0.003155
627.253000 0.024328
627.482200 0.018252
627.711400 0.003221
627.940600 0.014566
628.169800 -0.011096
628.399100 -0.024241
628.628300 -0.013143
628.857600 -0.007458
629.086800 0.035428
629.316100 0.013439
629.545400 0.021226
629.774700 0.037608
630.004000 0.005029
630.233300 0.016310
630.462600 0.003915
630.692000 -0.006868
630.921300 0.000196
631.150700 -0.001923
631.380100 -0.005597
631.609400 0.006142
631.838800 0.039082
632.068200 0.012565
632.297600 0.024513
632.527100 -0.015682
632.756500 0.014231
632.985900 -0.010179
633.215400 0.009894
633.444800 0.002968
633.674300 0.031379
633.903800 0.004955
634.133300 0.008611
634.362800 0.002717
634.592300 -0.009043
634.821800 0.018711
635.051400 0.043697
635.280900 0.003702
635.510500 -0.010428
635.740000 0.018148
635.969600 0.037828
636.199200 0.000710
636.428800 0.049381
636.658400 0.003783
636.888000 -0.005260
637.117700 0.027969
637.347300 -0.010712
637.577000 0.022176
637.806600 0.018686
638.036300 0.039677
638.266000 -0.016631
638.495700 0.043730
638.725400 -0.002849
638.955100 0.022561
639.184800 -0.028490
639.414500 0.023720
639.644300 -0.018775
639.874000 -0.003917
640.103800 -0.016364
640.333600 -0.023361
640.563300 0.001512
640.793100 0.008126
641.022900 -0.009008
641.252800 -0.001715
641.482600 0.033147
641.712400 0.007081
641.942300 -0.002272
642.172100 0.015934
642.402000 -0.001007
642.631900 0.000224
642.861700 0.001144
643.091600 0.038636
643.321600 0.017934
643.551500 -0.015745
643.781400 0.008325
644.011300 0.022624
644.241300 -0.005355
644.471200 0.009167
644.701200 -0.008344
644.931200 0.033561
645.161200 0.014352
645.391200 0.020901
645.621200 0.052757
645.851200 0.026859
646.081200 -0.024614
646.311300 0.025804
646.541300 0.029479
646.771400 -0.016635
647.001500 0.009267
647.231600 -0.004106
647.461600 0.041847
647.691800 0.071406
647.921900 0.076639
648.152000 0.017145
648.382100 0.026956
648.612300 0.046791
648.842400 0.018732
649.072600 0.051773
649.302800 0.016051
649.532900 0.015256
649.763100 -0.006417
649.993300 0.025657
650.223600 0.015651
650.453800 -0.008154
650.684000 -0.006082
650.914300 0.023806
651.144500 0.004611
651.374800 0.032951
651.605100 0.022083
651.835400 0.043101
652.065700 0.019313
652.296000 0.011277
652.526300 0.006075
652.756600 0.005869
652.987000 -0.016180
653.217300 0.016229
653.447700 -0.018831
653.678000 0.011740
653.908400 0.016187
654.138800 0.035741
654.369200 0.059570
654.599600 0.057589
654.830000 0.063619
655.060500 0.247269
655.290900 0.467197
655.521300 0.471163
655.751800 0.290267
655.982300 0.034108
656.212800 0.000974
656.443300 0.001458
656.673800 0.001232
656.904300 0.002850
657.134800 -0.041399
657.365300 -0.065210
657.595900 -0.043657
657.826400 -0.032160
658.057000 -0.018669
658.287500 -0.013816
658.518100 -0.023316
658.748700 -0.015714
658.979300 0.000601
659.209900 -0.049889
659.440600 -0.133640
659.671200 -0.223750
659.901800 -0.273156
660.132500 -0.241507
660.363200 -0.185261
660.593800 -0.099806
660.824500 -0.094167
661.055200 0.012675
661.285900 0.009184
661.516600 0.001742
661.747400 -0.005461
661.978100 0.033385
662.208800 0.042519
662.439600 0.057619
662.670400 0.030354
662.901100 0.042242
663.131900 0.042527
663.362700 0.026086
663.593500 0.014830
663.824300 0.057924
664.055200 0.027000
664.286000 0.012757
664.516800 0.049672
664.747700 0.020402
664.978600 0.020207
665.209400 0.045550
665.440300 0.024885
665.671200 0.022841
665.902100 0.075848
666.133000 -0.000196
666.364000 -0.007511
666.594900 0.007116
666.825900 0.006457
667.056800 0.035828
667.287800 0.013128
667.518800 0.011862
667.749700 0.004820
667.980700 0.027209
668.211700 0.020672
668.442800 0.045101
668.673800 0.009954
668.904800 0.036366
669.135900 0.047766
669.366900 0.061015
669.598000 -0.029271
669.829100 0.052878
670.060200 -0.030882
670.291300 0.051058
670.522400 -0.011715
670.753500 0.010037
670.984600 0.020710
671.215700 0.064819
671.446900 0.079282
671.678100 0.088008
671.909200 0.044888
672.140400 0.053796
672.371600 0.051376
672.602800 0.026391
672.834000 -0.005736
673.065200 -0.013252
673.296400 0.008224
673.527700 0.000606
673.758900 -0.005172
673.990200 0.018694
674.221400 0.015159
674.452700 0.027308
674.684000 -0.039008
674.915300 0.024676
675.146600 0.001122
675.377900 0.005670
675.609300 0.027600
675.840600 0.051555
676.071900 0.008362
676.303300 -0.004149
676.534700 -0.006592
676.766100 -0.010115
676.997400 -0.028985
677.228800 0.010795
677.460200 0.019517
677.691700 0.060608
677.923100 0.055414
678.154500 0.007214
678.386000 0.000876
678.617400 0.061551
678.848900 0.004065
679.080400 -0.003325
679.311900 0.034966
679.543400 0.022517
679.774900 0.022550
680.006400 0.026829
680.237900 0.022048
680.469400 0.003000
680.701000 0.017039
680.932500 0.022354
681.164100 0.012264
681.395700 0.018564
681.627300 0.011989
681.858900 -0.006475
682.090500 0.011078
682.322100 -0.009180
682.553700 -0.022603
682.785400 -0.011949
683.017000 0.013793
683.248700 0.000042
683.480300 0.034237
683.712000 -0.003722
683.943700 0.015926
684.175400 0.044827
684.407100 0.035376
684.638800 0.026232
684.870500 0.026196
685.102300 0.035847
685.334000 0.028306
685.565800 0.034889
685.797500 0.017727
686.029300 0.010342
686.261100 0.013200
686.492900 0.013918
686.724700 0.007281
686.956500 -0.000532
687.188300 0.030768
687.420200 0.024441
687.652000 0.015568
687.883800 -0.013645
688.115700 -0.013594
688.347600 -0.003040
688.579500 0.003421
688.811400 -0.005044
689.043300 0.009061
689.275200 -0.006397
689.507100 0.023434
689.739000 -0.001429
689.971000 0.011516
690.202900 0.008984
690.434900 -0.004295
690.666900 -0.004758
690.898800 0.030333
691.130800 0.035176
691.362800 0.006823
691.594800 0.003579
691.826900 -0.000429
692.058900 0.036835
692.290900 0.010810
692.523000 0.046442
692.755000 0.008534
692.987100 0.043537
693.219200 0.025468
693.451300 0.023067
693.683400 0.004316
693.915500 0.003170
694.147600 -0.005826
694.379700 -0.005237
694.611900 -0.001101
694.844000 0.026335
695.076200 -0.002716
695.308300 0.040242
695.540500 -0.019836
695.772700 -0.014143
696.004900 0.029386
696.237100 -0.013747
696.469300 0.021621
696.701600 0.077078
696.933800 0.048018
697.166000 -0.001661
697.398300 0.023750
697.630600 0.036105
697.862800 0.014007
698.095100 0.029407
698.327400 0.029860
698.559700 -0.007452
698.792000 -0.019748
699.024300 -0.007533
699.256700 -0.000804
699.489000 0.003740
699.721400 -0.011074
699.953700 -0.048492
700.186100 0.012933
700.418500 -0.007123
700.650900 0.012721
700.883300 0.012183
701.115700 0.009872
701.348100 -0.021763
701.580600 -0.005029
701.813000 0.027610
702.045400 -0.005966
702.277900 0.007658
702.510400 0.023080
702.742900 -0.017817
702.975300 0.002325
703.207800 0.005187
703.440300 0.017044
703.672900 0.005580
703.905400 0.023998
704.137900 -0.008144
704.370500 0.045939
704.603000 -0.009237
704.835600 -0.013689
705.068200 -0.066093
705.300800 0.015625
705.533400 0.004829
705.766000 0.013961
705.998600 0.025457
706.231200 0.063409
706.463800 0.093649
706.696500 0.062830
706.929100 0.020575
707.161800 0.009025
707.394500 0.069762
707.627200 -0.000659
707.859900 0.016523
708.092600 0.019298
708.325300 0.013161
708.558000 -0.000299
708.790700 0.028648
709.023500 0.010768
709.256200 -0.033242
709.489000 -0.033456
709.721700 -0.024940
709.954500 0.007348
710.187300 -0.026483
710.420100 -0.000942
710.652900 -0.007896
710.885700 -0.037459
711.118600 -0.021611
711.351400 -0.015171
711.584200 0.007191
711.817100 0.009742
712.050000 0.004828
712.282800 -0.020170
712.515700 0.020500
712.748600 0.026324
712.981500 0.015117
713.214400 0.029366
713.447400 0.010520
713.680300 0.034343
713.913200 0.006322
714.146200 0.005354
714.379100 0.013706
714.612100 0.004054
714.845100 0.000113
715.078100 0.037967
715.311100 -0.025627
715.544100 0.003791
715.777100 -0.004473
716.010200 -0.042032
716.243200 -0.081041
716.476200 0.016807
716.709300 -0.002891
716.942400 0.001487
717.175400 -0.006118
717.408500 0.004174
717.641600 -0.029486
717.874700 0.026955
718.107800 0.056071
718.341000 0.008768
718.574100 -0.005737
718.807200 0.028365
719.040400 0.032869
719.273600 0.034278
719.506700 0.008663
719.739900 0.015533
719.973100 -0.019124
720.206300 -0.019238
720.439500 -0.008477
720.672700 0.032011
720.906000 0.017584
721.139200 -0.026834
721.372500 0.036178
721.605700 0.024804
721.839000 0.037348
722.072300 0.022952
722.305500 0.000378
722.538800 0.001503
722.772100 -0.021389
723.005500 -0.002604
723.238800 -0.007096
723.472100 -0.006252
723.705500 -0.001704
723.938800 0.017004
724.172200 -0.003386
724.405600 0.007978
724.638900 0.024862
724.872300 0.003250
725.105700 0.065123
725.339100 0.062890
725.572600 0.036824
725.806000 0.004013
726.039400 0.032470
726.272900 0.019760
726.506300 0.020793
726.739800 -0.019935
726.973300 -0.009507
727.206800 0.002395
727.440300 0.007151
727.673800 0.046868
727.907300 0.022635
728.140800 0.005653
728.374300 0.014863
728.607900 0.047166
728.841400 -0.006771
729.075000 0.033514
729.308600 0.021047
729.542100 0.030441
729.775700 0.038001
730.009300 0.002343
730.242900 0.002735
730.476600 0.057088
730.710200 0.025128
730.943800 0.051479
731.177500 0.058369
731.411100 0.019372
731.644800 -0.000135
731.878500 0.003980
732.112200 -0.002816
732.345800 -0.003070
732.579500 0.019793
732.813300 0.044005
733.047000 0.014655
733.280700 0.022925
733.514500 0.012732
733.748200 0.048880
733.982000 0.035358
734.215700 0.023881
734.449500 0.039924
734.683300 0.021359
734.917100 -0.008601
735.150900 0.017714
735.384700 0.014320
735.618500 0.018790
735.852400 0.007041
736.086200 0.010492
736.320100 0.005579
736.553900 0.017087
736.787800 0.009251
737.021700 0.018780
737.255600 -0.003287
737.489500 -0.007290
737.723400 -0.015019
737.957300 -0.026421
738.191200 -0.013235
738.425200 -0.015989
738.659100 -0.004548
738.893100 0.019996
739.127100 0.051196
739.361000 0.027284
739.595000 0.020209
739.829000 -0.002949
740.063000 -0.016044
740.297000 0.007536
740.531000 0.008701
740.765100 -0.012909
740.999100 0.010294
741.233200 0.008263
741.467200 0.003646
741.701300 -0.004218
741.935400 -0.009918
742.169500 -0.009602
742.403600 0.015621
742.637700 0.017936
742.871800 -0.002707
743.105900 -0.004497
743.340000 -0.028395
743.574200 -0.000541
743.808300 0.007044
744.042500 -0.023750
744.276700 0.005037
744.510800 -0.009462
744.745000 0.017567
744.979200 0.046930
745.213400 0.015729
745.447700 0.017764
745.681900 -0.011883
745.916100 0.030160
746.150400 0.005887
746.384600 0.049815
746.618900 -0.026468
746.853200 0.018480
747.087400 0.011391
747.321700 0.052988
747.556000 -0.008269
747.790300 0.008593
748.024700 -0.021128
748.259000 -0.013335
748.493300 0.013236
748.727700 -0.027127
748.962000 0.011865
749.196400 0.058034
749.430800 0.041760
749.665200 0.017447
749.899500 0.027998
750.133900 0.012291
750.368400 0.017904
750.602800 0.000477
750.837200 -0.015417
751.071700 -0.000670
751.306100 0.008983
751.540600 0.028280
751.775000 0.045632
752.009500 -0.003912
752.244000 -0.007198
752.478500 0.004692
752.713000 0.000902
752.947500 -0.009476
753.182000 0.016175
753.416600 0.017410
753.651100 0.062775
753.885600 0.046129
754.120200 0.004260
754.354800 -0.025762
754.589400 -0.004180
754.823900 0.008174
755.058500 0.017037
755.293100 0.018410
755.527800 0.002900
755.762400 0.024003
755.997000 0.034801
756.231700 0.011144
756.466300 0.038620
756.701000 0.057772
756.935600 0.002415
757.170300 0.029287
757.405000 0.060093
757.639700 0.016437
757.874400 0.024581
758.109100 0.021078
758.343800 -0.004201
758.578600 0.005714
758.813300 0.023915
759.048100 0.015353
759.282800 0.028671
759.517600 0.009756
759.752400 0.004633
759.987200 0.006247
760.222000 0.016000
760.456800 0.007678
760.691600 0.027383
760.926400 0.003606
761.161300 0.015075
761.396100 -0.012726
761.631000 -0.025943
761.865800 0.002710
762.100700 0.007303
762.335600 0.002912
762.570500 -0.009211
762.805400 -0.004445
763.040300 -0.016110
763.275200 0.031595
763.510100 0.021539
763.745000 0.014359
763.980000 0.031547
764.214900 0.011505
764.449900 0.039889
764.684900 0.020403
764.919800 0.013925
765.154800 0.001902
765.389800 0.016604
765.624800 0.010735
765.859900 -0.015829
766.094900 -0.011511
766.329900 -0.013502
766.565000 -0.013138
766.800000 -0.027911
767.035100 -0.013333
767.270100 0.006589
767.505200 -0.010642
767.740300 0.034389
767.975400 0.010833
768.210500 0.014583
768.445600 0.026643
768.680800 0.037406
768.915900 0.043095
769.151000 0.008156
769.386200 -0.000237
769.621400 -0.016450
769.856500 0.011001
770.091700 0.018025
770.326900 -0.012202
770.562100 0.016026
770.797300 0.008561
771.032500 0.008559
771.267700 0.017693
771.503000 -0.005511
771.738200 0.019810
771.973500 -0.028702
772.208700 0.000010
772.444000 0.031889
772.679300 -0.000773
772.914600 0.007307
773.149900 -0.037367
773.385200 0.009425
773.620500 -0.002440
773.855800 0.004093
774.091100 -0.042571
774.326500 0.012069
774.561800 -0.026532
774.797200 -0.002026
775.032600 0.013857
775.267900 -0.002435
775.503300 -0.015663
775.738700 0.018080
775.974100 -0.021907
776.209500 0.002176
776.445000 0.001989
776.680400 0.037777
776.915800 0.004093
777.151300 0.037990
777.386800 0.020495
777.622200 0.018196
777.857700 0.000937
778.093200 -0.000389
778.328700 0.016761
778.564200 0.008686
778.799700 0.037438
779.035200 0.056859
779.270700 0.012736
779.506300 0.030343
779.741800 -0.004132
779.977400 -0.000103
780.213000 0.012580
780.448500 0.006645
780.684100 0.033102
780.919700 0.036317
781.155300 0.043632
781.390900 0.076166
781.626500 0.019898
781.862200 0.059114
782.097800 0.008361
782.333500 0.024295
782.569100 -0.003244
782.804800 0.005328
783.040500 -0.011276
783.276100 -0.010999
783.511800 0.006473
783.747500 0.025517
783.983200 0.025776
784.219000 0.014078
784.454700 0.000322
784.690400 0.010592
784.926200 0.002957
785.161900 0.040520
785.397700 0.024588
785.633500 0.015167
785.869200 -0.014869
786.105000 0.040088
786.340800 0.043396
786.576600 0.036646
786.812400 -0.001875
787.048300 0.009943
787.284100 0.029140
787.519900 0.022949
787.755800 0.000783
787.991700 0.017553
788.227500 0.004105
788.463400 0.037710
788.699300 0.044727
788.935200 0.040845
789.171100 0.010209
789.407000 -0.016452
789.642900 0.014884
789.878900 0.029391
790.114800 -0.002254
790.350700 0.017563
790.586700 0.035455
790.822700 -0.002362
791.058600 -0.038723
791.294600 0.033691
791.530600 0.067263
791.766600 0.027361
792.002600 -0.014579
792.238700 -0.021881
792.474700 0.008959
792.710700 0.011051
792.946800 -0.046735
793.182800 0.023383
793.418900 0.025073
793.655000 0.029350
793.891000 0.077841
794.127100 0.106496
794.363200 0.059926
794.599300 0.018077
794.835500 0.027403
795.071600 0.034096
795.307700 0.048193
795.543900 -0.003940
795.780000 -0.021413
796.016200 0.008873
796.252300 -0.018403
796.488500 0.001082
796.724700 0.013055
796.960900 0.063701
797.197100 0.024000
797.433300 -0.005943
797.669500 0.025467
797.905800 0.058764
798.142000 -0.007300
798.378300 0.036151
798.614500 0.009644
798.850800 0.038006
799.087100 0.013816
799.323300 0.012559
799.559600 -0.005665
799.795900 -0.016032
800.032200 0.028992
800.268600 -0.006792
800.504900 0.063949
800.741200 0.014257
800.977600 0.009414
801.213900 0.029451
801.450300 0.009221
801.686700 0.035345
801.923000 0.024598
802.159400 0.021990
802.395800 0.048416
802.632200 0.027745
802.868600 -0.010283
803.105100 0.052736
803.341500 0.009100
803.577900 0.048749
803.814400 0.010593
804.050800 -0.008900
804.287300 -0.022121
804.523800 0.018996
804.760300 0.042584
804.996800 -0.029246
805.233300 0.014337
805.469800 0.060746
805.706300 -0.018677
805.942800 0.026815
806.179400 0.036466
806.415900 0.047407
806.652500 0.044838
806.889000 0.038707
807.125600 0.015567
807.362200 -0.036790
807.598800 -0.016129
807.835400 0.009944
808.072000 -0.001800
808.308600 0.060780
808.545200 0.018713
808.781800 -0.022284
809.018500 0.036984
809.255100 0.036518
809.491800 -0.044785
809.728400 -0.020764
809.965100 0.008435
810.201800 0.006493
810.438500 -0.027939
810.675200 -0.021514
810.911900 -0.012621
811.148600 0.026298
811.385300 0.045517
811.622100 0.007782
811.858800 -0.034816
812.095600 -0.035267
812.332300 0.008527
812.569100 -0.015099
812.805900 0.016877
813.042700 0.094047
813.279500 0.054879
813.516300 0.018229
813.753100 0.037448
813.989900 0.041541
814.226700 0.060078
814.463600 0.008353
814.700400 0.000873
814.937300 -0.029548
815.174200 -0.031617
815.411000 -0.000612
815.647900 -0.058523
815.884800 -0.030205
816.121700 0.027069
816.358600 -0.000313
816.595500 0.103611
816.832400 0.010928
817.069400 0.015280
817.306300 0.042465
817.543300 -0.003441
817.780200 0.012191
818.017200 0.043610
818.254200 0.035508
818.491200 -0.060356
818.728200 0.026832
818.965200 0.018218
819.202200 0.012009
819.439200 0.073905
819.676200 -0.042634
819.913300 0.049811
820.150300 -0.016000
820.387400 0.113702
820.624400 0.060277
820.861500 0.045757
821.098600 -0.006424
821.335700 0.043132
821.572700 0.110975
821.809900 0.033016
822.047000 0.027426
822.284100 -0.015861
822.521200 0.009952
822.758400 0.036150
822.995500 -0.000325
823.232700 0.036208
823.469800 -0.023959
823.707000 -0.014191
823.944200 0.006155
824.181400 0.024935
824.418600 -0.038887
824.655800 0.003518
824.893000 0.044305
825.130200 0.076570
825.367500 0.042121
825.604700 0.053188
825.841900 0.014760
826.079200 -0.013846
826.316500 0.000067
826.553700 0.039804
826.791000 0.034866
827.028300 0.073236
827.265600 0.063925
827.502900 0.029504
827.740200 0.012118
827.977600 -0.076638
828.214900 0.000785
828.452200 0.062732
828.689600 0.046352
828.927000 0.030647
829.164300 0.005841
829.401700 -0.033036
829.639100 -0.030175
829.876500 -0.063489
830.113900 0.039008
830.351300 0.058531
830.588700 -0.028375
830.826100 -0.016027
831.063600 -0.048667
831.301000 0.008360
831.538500 0.005649
831.775900 -0.036022
832.013400 0.064872
832.250900 0.104484
832.488400 0.001702
832.725900 0.026162
832.963400 0.079770
833.200900 0.035702
833.438400 0.024482
833.675900 0.119564
833.913500 0.083982
834.151000 0.056419
834.388600 0.042939
834.626100 0.066927
834.863700 0.046269
835.101300 0.034252
835.338900 -0.009840
835.576500 -0.034144
835.814100 -0.010917
836.051700 0.005613
836.289300 0.083085
836.526900 0.000809
836.764600 -0.025540
837.002200 0.042130
837.239900 0.073397
837.477500 0.075594
837.715200 -0.078844
837.952900 0.102483
838.190600 0.113094
838.428300 0.107613
838.666000 -0.028397
838.903700 0.114032
839.141400 0.006002
839.379100 0.073611
839.616900 -0.028124
839.854600 -0.033434
840.092400 0.074412
840.330200 0.065604
840.567900 0.058054
840.805700 0.073517
841.043500 0.109405
841.281300 0.047076
841.519100 -0.020128
841.756900 0.074864
841.994700 -0.007748
842.232600 0.064599
842.470400 0.020798
842.708200 0.037145
842.946100 -0.069357
843.184000 0.040567
843.421800 0.023791
843.659700 -0.019062
843.897600 0.045887
844.135500 0.152497
844.373400 -0.055969
844.611300 0.197778
844.849200 -0.063400
845.087200 0.137028
845.325100 0.003761
845.563100 0.027056
845.801000 0.166502
846.039000 0.062690
846.277000 -0.039366
846.514900 -0.027393
846.752900 0.080435
846.990900 0.068571
847.228900 -0.177796
847.466900 0.222055
847.705000 0.017272
847.943000 0.043597
848.181000 0.033514
848.419100 0.161426
848.657100 -0.021929
848.895200 0.009406
849.133300 0.085792
849.371300 0.025436
849.609400 0.027712
849.847500 0.079715
850.085600 -0.034096
850.323700 0.186664
850.561900 0.013207
850.800000 0.058551
851.038100 0.061034
851.276300 0.084797
851.514400 -0.078011
851.752600 0.010264
851.990800 0.137159
852.228900 0.116114
852.467100 0.124363
852.705300 0.164720
852.943500 0.107353
853.181700 0.136923
853.420000 0.058845
853.658200 0.077005
853.896400 0.050200
854.134700 0.057526
854.372900 0.022917
854.611200 0.042149
854.849500 0.085817
855.087700 0.027520
855.326000 0.032623
855.564300 -0.038134
855.802600 0.080399
856.040900 0.121707
856.279200 0.005557
856.517600 0.078906
856.755900 0.007792
856.994200 0.062821
857.232600 -0.078910
857.471000 0.056352
857.709300 -0.006704
857.947700 0.042719
858.186100 0.034501
858.424500 -0.015634
858.662900 -0.028276
858.901300 0.116837
859.139700 -0.103889
859.378100 0.032262
859.616600 0.062376
859.855000 -0.013272
860.093500 -0.066638
860.331900 0.011322
860.570400 -0.061674
860.808900 -0.015309
861.047300 -0.044111
861.285800 0.078327
861.524300 0.079429
861.762800 0.134323
862.001300 -0.025478
862.239900 0.037054
862.478400 -0.026026
862.716900 0.084032
862.955500 0.159896
863.194000 -0.020776
863.432600 -0.028173
863.671200 0.080624
863.909800 -0.036607
864.148300 0.044670
864.386900 -0.044927
864.625500 0.117242
864.864200 -0.059824
865.102800 0.008793
865.341400 -0.041414
865.580000 0.088505
865.818700 -0.005685
866.057300 0.025680
866.296000 -0.123649
866.534700 0.166474
866.773300 0.144235
867.012000 0.048259
867.250700 0.127183
867.489400 -0.054358
867.728100 0.155801
867.966900 0.166807
868.205600 -0.053823
868.444300 0.100158
868.683100 -0.111772
868.921800 -0.049269
869.160600 0.035274
869.399300 0.033624
869.638100 0.138990
869.876900 0.074762
870.115700 0.031505
870.354500 0.066961
870.593300 -0.059907
870.832100 0.133677
871.070900 -0.009173
871.309700 -0.009796
871.548600 0.143260
871.787400 0.046818
872.026300 -0.086597
872.265100 0.046613
872.504000 -0.086054
872.742900 0.002669
872.981800 0.019112
873.220700 0.199259
873.459600 0.080432
873.698500 0.115368
873.937400 0.110513
874.176300 0.048617
874.415300 0.019633
874.654200 0.063950
874.893200 0.007259
875.132100 0.132650
875.371100 -0.002362
875.610100 0.155433
875.849100 0.067425
876.088000 0.006634
876.327000 -0.048498
876.566100 -0.025123
876.805100 0.216735
877.044100 0.069442
877.283100 0.006709
877.522200 -0.161396
877.761200 0.040489
878.000300 0.003728
878.239300 0.107000
878.478400 0.011531
878.717500 0.126629
878.956600 0.019109
879.195700 0.058611
879.434800 0.079391
879.673900 0.070235
879.913000 -0.019064
880.152100 0.111968
880.391300 0.065805
880.630400 -0.038750
880.869600 -0.020516
881.108700 -0.000222
881.347900 -0.031107
881.587100 -0.006775
881.826200 0.003540
882.065400 -0.035866
882.304600 -0.048581
882.543800 -0.030647
882.783100 0.144372
883.022300 -0.017110
883.261500 0.113771
883.500700 0.109944
883.740000 -0.066219
883.979200 0.227097
884.218500 0.024038
884.457800 0.140848
884.697100 -0.003351
884.936300 0.131716
885.175600 0.108246
885.414900 0.065228
885.654200 -0.045065
885.893600 0.157706
886.132900 -0.000120
886.372200 0.042577
886.611600 -0.110385
886.850900 0.097074
887.090300 0.026696
887.329600 0.134422
887.569000 -0.035507
887.808400 0.150489
888.047800 -0.082474
888.287200 -0.049369
888.526600 0.039367
888.766000 0.008183
889.005400 0.092090
889.244800 0.080502
889.484300 0.030610
889.723700 0.227675
889.963200 -0.044255
890.202600 0.012866
890.442100 -0.046492
890.681600 0.046743
890.921100 0.044612
891.160600 0.120788
891.400100 0.089289
891.639600 0.109694
891.879100 0.013872
892.118600 0.125452
892.358100 -0.003889
892.597700 0.151690
892.837200 0.108714
893.076800 -0.082846
893.316300 0.186453
893.555900 0.162017
893.795500 -0.055758
894.035100 -0.124310
894.274700 0.012015
894.514300 0.106791
894.753900 0.029178
894.993500 0.009784
895.233100 0.000121
895.472700 0.156139
895.712400 0.085065
895.952000 0.191031
896.191700 -0.047010
896.431400 0.124616
896.671000 -0.005391
896.910700 0.121755
897.150400 -0.053209
897.390100 0.186656
897.629800 -0.055010
897.869500 -0.032714
898.109200 -0.026234
898.348900 0.286512
898.588700 0.042077
898.828400 0.171073
899.068200 0.019317
899.307900 0.079081
899.547700 0.131231
899.787500 0.088847
900.027200 -0.165786
900.267000 0.160089
900.506800 0.063285
900.746600 0.208243
900.986400 0.025477
901.226300 0.009325
901.466100 -0.026938
901.705900 0.072357
901.945800 -0.020969
902.185600 0.098173
902.425500 -0.010131
902.665400 0.003395
902.905200 0.059209
903.145100 0.272075
903.385000 -0.056909
903.624900 0.215639
903.864800 0.003136
904.104700 0.079821
904.344600 0.034971
904.584600 -0.098254
904.824500 -0.029439
905.064400 0.143782
905.304400 0.213662
905.544400 0.105440
905.784300 0.230832
906.024300 -0.070771
906.264300 0.028964
906.504300 0.159525
906.744300 0.054683
906.984300 0.044172
907.224300 -0.020875
907.464300 0.225913
907.704300 0.018208
907.944400 0.121372
908.184400 0.072109
908.424500 -0.096769
908.664500 0.159155
908.904600 -0.030425
909.144700 0.152673
909.384700 0.201585
909.624800 -0.215517
909.864900 0.082108
910.105000 0.267414
910.345200 -0.178785
910.585300 0.017269
910.825400 0.186036
911.065500 -0.042412
911.305700 0.048427
911.545800 0.116376
911.786000 0.244974
912.026200 -0.009700
912.266300 0.198272
912.506500 -0.079580
912.746700 0.065885
912.986900 -0.111082
913.227100 0.280112
913.467300 0.009293
913.707500 -0.027046
913.947800 0.053161
914.188000 0.109669
914.428300 0.095068
914.668500 0.167229
914.908800 -0.175219
915.149000 0.693945
915.389300 0.091006
915.629600 0.102559
915.869900 -0.042224
916.110200 0.006511
916.350500 0.043725
916.590800 0.023627
916.831100 0.049494
917.071400 0.314016
917.311800 -0.069179
917.552100 0.034840
917.792500 -0.024671
918.032800 -0.001997
918.273200 0.098144
918.513600 0.281113
918.753900 0.010205
918.994300 0.227076
919.234700 0.103067
919.475100 0.145635
919.715500 -0.014970
919.956000 0.123346
920.196400 0.008995
920.436800 -0.117525
920.677300 -0.111811
920.917700 0.349137
921.158200 0.022759
921.398600 -0.101916
921.639100 0.135225
921.879600 0.068231
922.120100 -0.137840
922.360600 0.236636
922.601100 -0.056570
922.841600 0.065083
923.082100 0.061897
923.322600 -0.046653
923.563100 0.126906
923.803700 0.149306
924.044200 0.050607
924.284800 0.314076
924.525400 0.117371
924.765900 0.277144
925.006500 -0.043179
925.247100 0.221648
925.487700 0.068874
925.728300 0.272428
925.968900 0.143119
926.209500 0.243898
926.450100 -0.226281
926.690800 0.106715
926.931400 0.096167
927.172000 0.028778
927.412700 0.311182
927.653300 -0.006560
927.894000 0.033872
928.134700 0.326372
928.375400 -0.076087
928.616100 0.213203
928.856800 -0.064404
929.097500 -0.050623
929.338200 -0.123286
929.578900 0.232004
929.819600 0.077076
930.060400 3.336260
930.301100 -0.138634
930.541900 0.125813
930.782600 0.237087
931.023400 0.074294
931.264200 0.177818
931.504900 0.167963
931.745700 -0.006420
931.986500 0.547164
932.227300 0.052210
932.468100 0.277871
932.708900 0.198583
932.949800 0.099257
933.190600 0.068646
933.431400 -0.028192
933.672300 0.034332
933.913100 0.058778
934.154000 0.585237
934.394900 0.067847
934.635800 -0.146387
934.876600 0.338479
935.117500 0.109024
935.358400 0.154094
935.599300 -0.021408
935.840300 0.330177
936.081200 0.497165
936.322100 3.152288
936.563000 0.365301
936.804000 0.605358
937.044900 -0.075919
937.285900 0.931930
937.526900 0.072886
937.767800 0.256426
938.008800 0.194977
938.249800 0.404052
938.490800 -0.034037
938.731800 -0.098086
938.972800 0.820907
939.213800 0.340505
939.454900 0.344007
939.695900 -0.131033
939.936900 0.042896
940.178000 -0.203801
940.419000 0.550836
940.660100 0.443328
940.901200 1.311060
941.142200 -0.196776
941.383300 -0.066131
941.624400 -0.181360
941.865500 0.121014
942.106600 0.331926
942.347700 -0.200409
942.588900 0.052550
942.830000 0.121642
943.071100 -0.070328
943.312300 0.846984
943.553400 -0.040772
943.794600 -0.044516
944.035700 0.258404
944.276900 1.022291
944.518100 -0.142614
944.759300 0.403528
945.000500 -0.411429
945.241700 1.063247
945.482900 0.090355
945.724100 0.590948
945.965300 -0.062224
946.206600 0.695177
946.447800 0.559543
946.689100 0.425389
946.930300 -0.500195
947.171600 0.111912
947.412800 -0.093148
947.654100 0.118597
947.895400 0.531386
948.136700 0.413789
948.378000 0.178271
948.619300 0.375963
948.860600 0.524138
949.101900 3.220892
949.343300 -0.105868
949.584600 -0.100072
949.825900 0.031477
950.067300 0.172654
950.308600 -0.002746
950.550000 3.250176
950.791400 -0.400472
951.032700 2.872739
951.274100 -0.099831
951.515500 0.312228
951.756900 0.044364
951.998300 0.328565
952.239800 0.017235
952.481200 0.161737
952.722600 0.082129
952.964000 0.275072
953.205500 -0.139476
953.446900 0.232174
953.688400 -0.199215
953.929900 0.701393
954.171300 -1.503537
954.412800 3.142389
954.654300 0.193321
954.895800 -0.209879
955.137300 0.191746
955.378800 -0.052121
955.620300 0.155375
955.861800 0.325866
956.103400 0.330757
956.344900 1.162905
956.586500 0.028192
956.828000 3.280123
957.069600 0.418711
957.311100 -0.076745
957.552700 3.389875
957.794300 3.097604
958.035900 -0.157280
958.277500 0.892224
958.519100 0.232045
958.760700 0.066658
959.002300 -0.249498
959.243900 -0.060198
959.485600 0.145500
959.727200 -0.120294
959.968800 0.361047
960.210500 0.129717
960.452200 -0.248111
960.693800 2.919078
960.935500 -2.788168
961.177200 -0.076648
961.418900 -0.216606
961.660600 0.437270
961.902300 0.487112
962.144000 0.860108
962.385700 -0.232795
962.627400 3.115278
962.869200 -0.208039
963.110900 2.702861
963.352700 2.840106
963.594400 3.215373
963.836200 1.186652
964.077900 3.168203
964.319700 0.218447
964.561500 0.082591
964.803300 0.470863
965.045100 1.011462
965.286900 2.791691
965.528700 -0.065961
965.770500 -0.442527
966.012300 2.827369
966.254200 2.791691
966.496000 0.081638
966.737900 0.082322
966.979700 3.209783
967.221600 2.833784
967.463400 3.189490
967.705300 0.270333
967.947200 1.046825
968.189100 -0.627442
968.431000 3.198382
968.672900 1.705715
968.914800 0.160377
969.156700 -0.233562
969.398700 2.896526
969.640600 0.602060
969.882500 0.148703
970.124500 -0.601193
970.366400 0.502797
970.608400 3.042969
970.850400 -0.238784
971.092300 -0.364127
971.334300 0.362973
971.576300 2.598791
971.818300 3.226342
972.060300 0.274789
972.302300 0.030804
972.544300 0.096715
972.786400 2.938520
973.028400 0.247784
973.270400 3.206826
973.512500 0.143907
973.754500 3.218010
973.996600 0.270481
974.238700 1.416000
974.480700 2.853698
974.722800 0.013675
974.964900 2.859739
975.207000 0.298919
975.449100 0.055155
975.691200 3.046885
975.933300 0.677607
976.175500 0.000000
976.417600 -0.059437
976.659700 0.104148
976.901900 3.021603
977.144000 3.192567
977.386200 -0.193445
977.628300 0.795254
977.870500 0.211879
978.112700 0.245222
978.354900 -0.305373
978.597100 2.975891
978.839300 2.905796
979.081500 -0.067137
979.323700 -2.724276
979.565900 2.663701
979.808200 1.330791
980.050400 3.226342
980.292600 3.008600
980.534900 1.651109
980.777100 -0.186483
981.019400 2.752816
981.261700 3.201124
981.504000 3.348889
981.746200 -1.036857
981.988500 0.225090
982.230800 2.805501
982.473100 3.192567
982.715500 3.218010
982.957800 0.241833
983.200100 -0.127264
983.442400 0.676162
983.684800 0.058189
983.927100 2.890421
984.169500 0.140949
984.411800 2.902547
984.654200 2.760422
984.896600 1.053402
985.139000 1.230449
985.381400 3.229170
985.623800 0.258969
985.866200 3.062958
986.108600 -2.648360
986.351000 0.232573
986.593400 0.712991
986.835800 0.369648
987.078300 -0.634035
987.320700 2.639486
987.563200 0.766205
987.805600 2.414973
988.048100 3.189209
988.290600 2.459392
988.533100 -3.404149
988.775600 2.980458
989.018000 3.115278
989.260500 0.313305
989.503100 -2.706718
989.745600 0.762124
989.988100 -2.687529
990.230600 3.097604
990.473200 2.935507
990.715700 3.257679
990.958200 2.523746
991.200800 2.745075
991.443400 -3.065580
991.685900 2.710117
991.928500 -2.844477
992.171100 2.158362
992.413700 0.622016
992.656300 3.161667
992.898900 0.393531
993.141500 1.265543
993.384100 -0.136156
993.626700 0.387054
993.869400 0.353882
994.112000 2.806180
994.354700 3.165244
994.597300 3.030195
994.840000 -3.264582
995.082600 2.480007
995.325300 -0.861785
995.568000 2.884795
995.810700 -0.841845
996.053400 2.866287
996.296100 2.827369
996.538800 3.042969
996.781500 0.543775
997.024200 2.049218
997.267000 2.791691
997.509700 0.817458
997.752400 2.768638
997.995200 3.051153
998.237900 -0.168250
998.480700 2.890421
998.723500 -3.033021
998.966200 2.956168
999.209000 -2.668386
999.451800 0.230836
999.694600 0.028329
999.937400 -0.609307
1000.180200 2.913284
1000.423000 0.328349
1000.665900 2.907949
1000.908700 -0.185864
1001.151500 0.122236
1001.394400 -0.193445
1001.637200 3.078457
1001.880100 -2.127105
1002.123000 -0.065150
1002.365800 0.017820
1002.608700 -0.657844
1002.851600 0.355777
1003.094500 0.313305
1003.337400 -0.286307
1003.580300 -2.978637
1003.823200 0.008433
1004.066100 2.945961
1004.309100 -0.418655
1004.552000 3.008600
1004.794900 0.242268
1005.037900 3.129368
1005.280800 0.018012
1005.523800 2.882525
1005.766700 -0.410611
1006.009700 3.047275
1006.252700 0.000000
1006.495700 -0.165724
1006.738700 0.000000
1006.981700 3.136086
1007.224700 -0.362566
1007.467700 2.008600
1007.710700 -0.513844
1007.953800 3.146128
1008.196800 -0.260990
1008.439800 0.267976
1008.682900 -0.286672
1008.925900 3.097604
1009.169000 0.515013
1009.412100 -2.706718
1009.655100 -1.240843
1009.898200 3.108227
1010.141300 2.131939
1010.384400 -0.198817
1010.627500 -0.294249
1010.870600 3.165244
1011.113700 3.086360
1011.356800 2.820201
1011.600000 -1.150087
1011.843100 0.502940
1012.086300 -2.648360
1012.329400 2.907411
1012.572600 0.000000
1012.815700 2.783904
1013.058900 -3.137987
1013.302100 3.003891
1013.545200 2.960946
1013.788400 3.108227
1014.031600 -2.369216
1014.274800 1.140683
1014.518000 0.985875
1014.761300 3.177536
1015.004500 -3.325105
1015.247700 2.940516
1015.490900 0.000000
1015.734200 3.239800
1015.977400 -0.488271
1016.220700 0.000000
1016.464000 2.853090
1016.707200 2.190332
1016.950500 2.378398
1017.193800 2.907949
1017.437100 2.562293
1017.680400 2.985426
1017.923700 0.082129
1018.167000 0.361906
1018.410300 0.061389
1018.653600 2.913814
1018.896900 3.021603
1019.140300 0.854104
1019.383600 -0.581519
1019.627000 2.950851
1019.870300 0.652469
1020.113700 3.183555
1020.357100 2.575188
1020.600400 0.322219
1020.843800 0.024678
1021.087200 3.287130
1021.330600 -2.968950
1021.574000 1.257863
1021.817400 -2.857332
1022.060800 0.000000
1022.304200 0.000000
1022.547700 2.902003
1022.791100 -0.039787
1023.034500 2.812913
