# Wavelength	Absorbance
197.780200 -0.447404
197.984200 2.907949
198.188200 0.755315
198.392200 0.723104
198.596300 -0.155103
198.800300 -0.516357
199.004400 2.918555
199.208500 -0.373762
199.412600 1.329543
199.616800 2.768638
199.820900 -0.824652
200.025100 2.877947
200.229200 2.463893
200.433400 3.008600
200.637600 -0.394489
200.841800 2.902003
201.046100 3.008600
201.250300 3.142702
201.454600 0.414712
201.658900 3.051153
201.863100 -0.095854
202.067400 -0.180592
202.271800 0.094206
202.476100 2.896526
202.680500 0.488913
202.884800 2.980458
203.089200 -0.077641
203.293600 2.745075
203.498000 0.722952
203.702400 2.336460
203.906900 1.959041
204.111300 -2.338456
204.315800 -0.369597
204.520300 3.062958
204.724800 -0.022949
204.929300 2.396199
205.133800 3.093772
205.338400 2.820201
205.543000 0.286639
205.747500 0.071485
205.952100 0.046616
206.156700 0.273453
206.361400 0.000000
206.566000 -0.945379
206.770600 0.021765
206.975300 2.294466
207.180000 0.845098
207.384700 2.587711
207.589400 0.000000
207.794100 0.352902
207.998900 -0.524224
208.203600 3.152288
208.408400 2.970812
208.613200 2.820201
208.818000 -0.555994
209.022800 2.414973
209.227600 2.820201
209.432500 0.196985
209.637300 -0.436955
209.842200 0.241388
210.047100 0.087688
210.252000 -0.600134
210.456900 1.127318
210.661800 3.055378
210.866800 0.914497
211.071800 -0.097183
211.276700 2.907949
211.481700 2.736397
211.686700 -0.240282
211.891800 0.426928
212.096800 3.336260
212.301800 2.890421
212.506900 3.209783
212.712000 0.402191
212.917100 0.275005
213.122200 2.866287
213.327300 3.220892
213.532500 -2.653213
213.737600 2.985426
213.942800 -0.511883
214.148000 2.631444
214.353200 0.000000
214.558400 2.956168
214.763600 1.575094
214.968900 0.185563
215.174100 -0.054779
215.379400 -2.338456
215.584700 2.846955
215.790000 0.389145
215.995300 2.820201
216.200700 -0.237182
216.406000 -0.005946
216.611400 -0.531545
216.816800 2.833784
217.022200 2.621176
217.227600 0.096021
217.433000 -0.137384
217.638400 3.047275
217.843900 -0.555051
218.049400 0.000000
218.254800 0.737262
218.460300 1.318404
218.665900 0.425498
218.871400 3.234517
219.076900 0.800007
219.282500 2.960946
219.488100 3.047275
219.693600 2.783904
219.899200 3.267641
220.104900 3.055378
220.310500 2.158362
220.516100 -2.990339
220.721800 2.872156
220.927500 3.071145
221.133200 -0.049335
221.338900 0.314292
221.544600 -0.324771
221.750300 0.509613
221.956100 -0.092154
222.161800 2.338456
222.367600 2.913284
222.573400 2.643453
222.779200 -2.563481
222.985000 0.000000
223.190900 0.324604
223.396700 -0.396691
223.602600 -0.662229
223.808500 2.736397
224.014400 2.853698
224.220300 2.935507
224.426200 -0.188617
224.632200 2.727541
224.838100 0.069563
225.044100 2.653213
225.250100 -0.255952
225.456100 2.653213
225.662100 0.787359
225.868100 2.127105
226.074200 -0.060390
226.280200 -2.653213
226.486300 -0.013383
226.692400 -2.919078
226.898500 -0.088368
227.104600 2.294466
227.310700 1.664776
227.516900 2.833784
227.723000 -0.155608
227.929200 3.252853
228.135400 3.074816
228.341600 2.622214
228.547800 3.108227
228.754100 3.003891
228.960300 -0.999753
229.166600 0.000000
229.372900 0.717617
229.579100 1.235889
229.785500 0.030515
229.991800 0.845098
230.198100 -0.361217
230.404500 1.963788
230.610800 3.003891
230.817200 -3.347135
231.023600 0.113720
231.230000 -0.177291
231.436400 0.961957
231.642900 -0.154237
231.849300 -0.243339
232.055800 2.008600
232.262300 0.535048
232.468800 -0.817660
232.675300 2.701568
232.881800 2.599883
233.088400 -0.162874
233.294900 -0.102984
233.501500 0.563546
233.708100 -2.961421
233.914700 -0.513052
234.121300 0.000000
234.327900 2.776701
234.534600 2.682145
234.741300 3.097604
234.947900 2.736397
235.154600 3.406199
235.361300 3.122544
235.568000 -0.130884
235.774800 1.215600
235.981500 0.872097
236.188300 0.000000
236.395100 0.207875
236.601800 -2.919078
236.808700 2.960946
237.015500 2.961421
237.222300 2.853698
237.429200 1.306248
237.636000 3.042969
237.842900 1.006160
238.049800 2.918555
238.256700 -0.194360
238.463600 0.410121
238.670600 0.632355
238.877500 0.783569
239.084500 0.000000
239.291500 0.811369
239.498500 0.118408
239.705500 2.643453
239.912500 0.000000
240.119500 -1.206330
240.326600 1.345234
240.533700 0.000000
240.740700 2.621176
240.947800 2.990339
241.154900 3.059185
241.362100 3.108227
241.569200 0.673416
241.776400 -0.190640
241.983500 2.783904
242.190700 0.574369
242.397900 0.000000
242.605100 2.537819
242.812400 -0.625275
243.019600 0.083027
243.226900 0.036175
243.434100 2.913284
243.641400 2.736397
243.848700 0.380380
244.056000 -2.820858
244.263400 2.653213
244.470700 3.082785
244.678100 0.408484
244.885400 2.945469
245.092800 2.682145
245.300200 -0.229776
245.507600 0.217738
245.715100 0.306275
245.922500 3.026125
246.130000 -1.750463
246.337500 3.183555
246.544900 -0.380502
246.752400 0.443781
246.960000 3.165244
247.167500 0.454197
247.375000 -3.132900
247.582600 0.731249
247.790200 1.845098
247.997800 0.026150
248.205400 3.262925
248.413000 2.872739
248.620600 2.727541
248.828300 3.270213
249.035900 1.185502
249.243600 3.093772
249.451300 0.434823
249.659000 0.307772
249.866700 0.604722
250.074500 0.931876
250.282200 3.189490
250.490000 0.683146
250.697800 2.846955
250.905600 -0.800344
251.113400 2.929930
251.321200 0.043550
251.529000 -0.623857
251.736900 3.177536
251.944700 3.186674
252.152600 0.995123
252.360500 0.371661
252.568400 2.662758
252.776300 2.397940
252.984300 1.454845
253.192200 1.295230
253.400200 2.935003
253.608200 -0.399682
253.816200 3.282396
254.024200 0.025166
254.232200 -0.668171
254.440200 -2.190332
254.648300 0.642273
254.856400 -0.104612
255.064400 2.775974
255.272500 3.097604
255.480600 3.104828
255.688800 -2.378398
255.896900 0.651797
256.105100 3.284882
256.313200 -0.053364
256.521400 2.827369
256.729600 3.025715
256.937800 0.793036
257.146000 2.902003
257.354300 0.000000
257.562500 0.593460
257.770800 0.000000
257.979100 0.521404
258.187400 2.833784
258.395700 0.371822
258.604000 3.034628
258.812400 2.919078
259.020700 0.205267
259.229100 0.221033
259.437500 0.283044
259.645900 0.338044
259.854300 0.057664
260.062700 0.319301
260.271100 2.621176
260.479600 3.097604
260.688100 -0.428046
260.896500 0.344905
261.105000 -0.542552
261.313500 0.662135
261.522100 3.142702
261.730600 0.253114
261.939200 0.008721
262.147700 -0.205728
262.356300 -0.031626
262.564900 1.691460
262.773500 -0.043926
262.982200 0.236961
263.190800 0.000000
263.399500 3.206826
263.608100 3.039017
263.816800 0.696172
264.025500 -0.141620
264.234200 -0.859505
264.442900 2.053078
264.651700 3.097604
264.860400 -0.128933
265.069200 0.397940
265.278000 2.990339
265.486800 0.388180
265.695600 2.450249
265.904400 0.897773
266.113300 0.472778
266.322100 1.010255
266.531000 2.294466
266.739900 -0.656871
266.948800 0.787350
267.157700 -0.432432
267.366600 0.676980
267.575500 0.088377
267.784500 2.550228
267.993500 2.994757
268.202400 2.970812
268.411400 0.003735
268.620500 2.761176
268.829500 2.775974
269.038500 2.123852
269.247600 3.078819
269.456600 -0.665342
269.665700 0.272825
269.874800 2.907411
270.083900 1.128168
270.293100 0.000000
270.502200 -0.000401
270.711400 -0.963506
270.920500 2.833784
271.129700 0.474881
271.338900 0.870098
271.548100 2.691965
271.757300 3.030195
271.966600 -0.192723
272.175800 3.277609
272.385100 3.132580
272.594400 0.098073
272.803700 3.021603
273.013000 2.799341
273.222300 0.173899
273.431600 0.786846
273.641000 3.209783
273.850400 0.251319
274.059700 2.945961
274.269100 3.209515
274.478500 -0.139759
274.688000 0.174529
274.897400 2.866287
275.106900 -1.281674
275.316300 3.055378
275.525800 0.772605
275.735300 0.000000
275.944800 2.965672
276.154300 2.662758
276.363900 0.031925
276.573400 0.095031
276.783000 0.720159
276.992600 2.846955
277.202200 0.106261
277.411800 -0.140643
277.621400 -0.307488
277.831000 3.118595
278.040700 3.177536
278.250300 2.820201
278.460000 -0.183749
278.669700 2.980458
278.879400 2.432969
279.089100 2.691965
279.298900 0.045134
279.508600 3.025715
279.718400 3.272770
279.928100 -2.632457
280.137900 3.215373
280.347700 1.185299
280.557600 0.666480
280.767400 3.039017
280.977200 -0.079181
281.187100 -2.941014
281.397000 -0.062994
281.606900 0.000000
281.816800 3.152288
282.026700 -0.092314
282.236600 2.935003
282.446600 2.924279
282.656500 -3.017868
282.866500 0.117749
283.076500 -0.851314
283.286500 3.115278
283.496500 0.269424
283.706500 2.907411
283.916600 2.866287
284.126600 -2.095916
284.336700 2.966142
284.546800 2.587711
284.756900 0.462234
284.967000 -0.084386
285.177100 3.042969
285.387300 0.000000
285.597400 0.826702
285.807600 -0.769421
286.017800 1.103914
286.228000 0.000000
286.438200 0.365254
286.648400 2.940516
286.858700 0.926833
287.068900 2.760422
287.279200 -0.114466
287.489500 2.414973
287.699800 3.158965
287.910100 2.621176
288.120400 0.199702
288.330800 2.220108
288.541100 3.352954
288.751500 2.217484
288.961900 0.202921
289.172300 0.000000
289.382700 0.227244
289.593100 0.349803
289.803500 0.000000
290.014000 0.009182
290.224500 3.059185
290.434900 -2.587711
290.645400 -0.197008
290.855900 0.314756
291.066500 1.187087
291.277000 0.691215
291.487500 -0.182699
291.698100 2.768638
291.908700 -0.467723
292.119300 0.448524
292.329900 0.505150
292.540500 2.728354
292.751100 2.956168
292.961800 0.000000
293.172400 -0.068616
293.383100 0.000000
293.593800 0.384097
293.804500 -0.616725
294.015200 2.980458
294.226000 0.000000
294.436700 2.799341
294.647500 0.571821
294.858200 3.074816
295.069000 0.104041
295.279800 -0.263169
295.490600 -3.009026
295.701500 0.868853
295.912300 -0.192756
296.123200 0.328650
296.334000 2.719331
296.544900 3.316809
296.755800 3.220892
296.966700 0.127081
297.177700 -0.180171
297.388600 2.935003
297.599500 0.310472
297.810500 0.397411
298.021500 0.903706
298.232500 3.155640
298.443500 -0.688202
298.654500 0.258458
298.865600 -0.139954
299.076600 2.622214
299.287700 -2.127105
299.498800 0.527182
299.709900 0.523605
299.921000 0.646806
300.132100 0.029594
300.343200 1.311405
300.554400 0.058414
300.765500 0.515242
300.976700 0.000000
301.187900 3.104487
301.399100 2.813581
301.610300 0.188353
301.821500 0.801257
302.032800 3.104487
302.244100 3.017451
302.455300 -0.035295
302.666600 0.475622
302.877900 0.465166
303.089200 -0.418766
303.300600 3.209783
303.511900 2.970812
303.723300 2.924279
303.934600 -0.261643
304.146000 0.845098
304.357400 2.432969
304.568800 0.309136
304.780300 0.132725
304.991700 2.784617
305.203100 -0.381371
305.414600 1.145304
305.626100 2.294466
305.837600 0.270684
306.049100 -0.204938
306.260600 -0.150518
306.472200 2.245513
306.683700 2.945961
306.895300 2.575188
307.106900 0.112468
307.318400 3.034628
307.530100 1.718086
307.741700 2.806180
307.953300 0.821691
308.165000 -3.043362
308.376600 0.265724
308.588300 0.631633
308.800000 0.161488
309.011700 0.180079
309.223400 1.166765
309.435100 2.450249
309.646900 0.649774
309.858600 0.028463
310.070400 -0.126710
310.282200 -1.425581
310.494000 3.287130
310.705800 3.168203
310.917600 -0.035869
311.129500 2.840106
311.341300 0.130905
311.553200 3.180413
311.765100 0.242723
311.977000 3.142702
312.188900 0.171206
312.400800 0.356658
312.612700 3.012837
312.824700 3.292034
313.036600 0.019401
313.248600 0.850592
313.460600 2.999565
313.672600 0.711600
313.884600 -0.046540
314.096700 -0.308065
314.308700 1.060988
314.520800 3.104828
314.732800 0.530038
314.944900 0.731155
315.157000 0.571169
315.369200 0.261927
315.581300 0.572240
315.793400 2.653213
316.005600 0.378769
316.217700 0.307865
316.429900 3.525174
316.642100 3.168203
316.854300 0.382809
317.066600 0.735091
317.278800 0.829428
317.491100 0.518347
317.703300 3.336260
317.915600 0.732965
318.127900 0.216334
318.340200 0.852092
318.552500 0.544309
318.764900 0.428286
318.977200 0.411059
319.189600 0.169857
319.401900 0.064088
319.614300 0.734474
319.826700 0.604578
320.039200 3.358886
320.251600 0.362398
320.464000 3.336260
320.676500 3.265290
320.889000 0.126926
321.101400 0.202451
321.313900 1.863110
321.526500 0.884342
321.739000 1.417536
321.951500 0.780056
322.164100 3.132580
322.376600 0.600109
322.589200 3.362859
322.801800 0.237157
323.014400 3.360972
323.227000 3.354876
323.439700 3.437433
323.652300 0.299565
323.865000 3.374748
324.077700 3.558108
324.290400 0.437530
324.503100 3.378580
324.715800 3.399154
324.928500 3.425697
325.141200 3.384174
325.354000 0.399926
325.566800 0.284705
325.779600 0.944279
325.992400 3.314710
326.205200 3.542576
326.418000 1.059389
326.630800 1.131245
326.843700 3.659250
327.056600 3.478999
327.269400 3.416973
327.482300 3.531990
327.695200 3.385964
327.908200 0.815548
328.121100 3.453930
328.334000 1.363794
328.547000 3.636688
328.760000 2.055542
328.973000 3.578983
329.186000 3.564311
329.399000 0.792703
329.612000 0.454882
329.825100 0.577205
330.038100 3.534534
330.251200 0.781181
330.464300 1.208049
330.677400 0.829304
330.890500 2.292493
331.103600 3.526469
331.316700 0.476429
331.529900 3.658298
331.743100 3.583879
331.956200 0.680427
332.169400 3.577836
332.382600 3.520876
332.595900 0.649989
332.809100 0.813075
333.022300 0.624331
333.235600 0.827288
333.448900 3.655235
333.662200 0.761808
333.875500 1.184888
334.088800 3.518251
334.302100 0.649910
334.515400 3.647089
334.728800 0.624003
334.942200 3.626956
335.155500 0.639226
335.368900 3.756864
335.582300 1.395366
335.795800 0.499143
336.009200 0.542153
336.222700 1.821139
336.436100 2.278100
336.649600 3.795949
336.863100 0.468688
337.076600 0.585365
337.290100 0.996313
337.503600 3.672098
337.717200 1.066443
337.930700 3.722716
338.144300 3.781037
338.357900 3.656290
338.571500 2.870571
338.785100 3.703205
338.998700 0.879393
339.212400 3.815312
339.426000 3.712144
339.639700 0.615728
339.853300 3.765594
340.067000 3.741388
340.280700 1.284151
340.494500 3.790074
340.708200 0.505493
340.921900 0.936306
341.135700 1.525337
341.349500 1.193447
341.563300 0.722264
341.777100 3.818094
341.990900 0.591116
342.204700 3.816042
342.418500 3.869232
342.632400 1.584948
342.846300 3.839164
343.060100 0.964669
343.274000 0.757594
343.487900 3.871748
343.701900 0.727742
343.915800 0.841684
344.129700 3.873611
344.343700 3.778006
344.557700 0.621068
344.771700 0.890616
344.985700 0.995424
345.199700 3.834484
345.413700 3.908914
345.627700 0.765464
345.841800 3.870521
346.055900 0.810762
346.269900 3.868644
346.484000 2.451457
346.698100 0.864265
346.912300 1.511883
347.126400 1.567555
347.340600 1.484190
347.554700 0.757132
347.768900 1.038749
347.983100 3.942058
348.197300 3.889246
348.411500 1.690539
348.625700 1.192818
348.840000 3.898615
349.054200 3.926085
349.268500 1.044941
349.482800 3.888011
349.697100 0.838490
349.911400 1.245375
350.125700 0.751305
350.340000 0.976448
350.554400 1.402520
350.768700 1.219959
350.983100 1.285363
351.197500 0.958806
351.411900 1.689971
351.626300 3.954918
351.840700 1.142174
352.055200 3.931966
352.269600 3.959471
352.484100 1.205777
352.698600 1.117334
352.913100 1.105166
353.127600 3.993348
353.342100 3.948266
353.556600 3.994713
353.771200 0.805864
353.985800 1.002629
354.200300 3.930898
354.414900 1.019672
354.629500 3.907143
354.844100 1.456454
355.058800 1.633422
355.273400 3.971369
355.488100 3.989138
355.702700 1.480903
355.917400 0.921052
356.132100 4.015527
356.346800 1.349542
356.561500 0.944801
356.776300 3.974327
356.991000 0.920747
357.205800 3.987264
357.420600 0.979176
357.635300 3.982045
357.850100 1.640219
358.065000 3.991935
358.279800 0.834111
358.494600 1.396514
358.709500 1.003854
358.924300 1.301857
359.139200 4.039216
359.354100 0.928639
359.569000 1.279181
359.783900 3.987264
359.998900 3.957464
360.213800 1.681490
360.428800 4.072617
360.643800 3.982497
360.858700 1.907868
361.073700 4.040048
361.288800 1.101128
361.503800 4.026452
361.718800 1.341984
361.933900 4.009323
362.148900 4.016866
362.364000 3.994713
362.579100 4.062845
362.794200 4.002986
363.009300 2.227152
363.224500 4.031206
363.439600 4.024280
363.654800 4.034989
363.869900 1.782652
364.085100 4.019947
364.300300 1.137943
364.515500 1.754635
364.730800 4.062845
364.946000 2.002529
365.161200 1.484844
365.376500 1.309659
365.591800 1.491323
365.807100 4.020403
366.022400 1.222027
366.237700 1.514540
366.453000 1.270990
366.668400 1.241803
366.883700 1.203296
367.099100 1.699224
367.314500 1.522487
367.529900 0.952265
367.745300 1.353502
367.960700 3.244277
368.176100 0.966940
368.391600 1.241512
368.607000 1.182967
368.822500 1.866388
369.038000 2.191132
369.253500 2.255307
369.469000 2.164680
369.684500 4.136974
369.900100 1.329929
370.115600 1.652953
370.331200 1.587302
370.546800 1.516298
370.762400 1.140927
370.978000 1.597445
371.193600 0.869580
371.409200 1.514137
371.624900 2.201667
371.840500 1.990797
372.056200 4.129561
372.271900 1.490468
372.487600 1.261105
372.703300 1.418952
372.919000 1.825811
373.134800 1.599851
373.350500 1.152723
373.566300 4.154637
373.782000 1.354529
373.997800 4.169498
374.213600 1.002396
374.429400 4.167613
374.645300 1.045640
374.861100 4.167317
375.077000 4.192735
375.292800 1.070059
375.508700 1.624530
375.724600 4.210586
375.940500 4.218404
376.156400 1.774206
376.372400 1.035002
376.588300 1.192134
376.804300 2.787562
377.020300 4.247581
377.236200 1.747781
377.452200 2.216738
377.668200 1.262054
377.884300 4.260358
378.100300 1.368470
378.316400 4.291879
378.532400 1.219490
378.748500 2.342314
378.964600 4.312452
379.180700 1.367379
379.396800 1.377174
379.612900 1.796419
379.829100 1.597431
380.045200 4.285760
380.261400 1.570917
380.477600 1.446346
380.693800 1.768757
380.910000 4.341138
381.126200 1.211993
381.342400 2.474861
381.558700 1.080287
381.774900 4.288607
381.991200 1.304753
382.207500 1.247225
382.423800 1.279490
382.640100 2.651357
382.856400 1.236166
383.072800 4.319502
383.289100 1.718585
383.505500 1.957060
383.721900 1.399104
383.938200 1.104701
384.154600 1.074420
384.371100 4.337779
384.587500 1.114021
384.803900 3.521792
385.020400 1.196243
385.236800 1.535474
385.453300 1.075019
385.669800 1.281138
385.886300 1.430305
386.102800 2.912962
386.319400 1.446563
386.535900 1.808491
386.752500 1.567723
386.969000 1.520100
387.185600 1.058280
387.402200 1.087398
387.618800 1.078974
387.835500 1.352994
388.052100 1.222098
388.268700 1.165604
388.485400 1.059745
388.702100 2.569808
388.918800 0.909482
389.135500 1.180994
389.352200 1.029130
389.568900 1.067198
389.785600 0.975045
390.002400 1.195424
390.219200 1.148158
390.435900 0.881269
390.652700 1.081511
390.869500 0.916921
391.086300 0.776141
391.303200 0.923500
391.520000 0.724385
391.736900 0.913316
391.953700 0.943748
392.170600 1.255257
392.387500 0.705908
392.604400 0.806068
392.821300 0.731371
393.038300 0.666353
393.255200 0.695335
393.472200 0.786576
393.689100 0.619706
393.906100 0.668457
394.123100 0.623376
394.340100 0.631106
394.557200 0.612850
394.774200 0.713052
394.991200 0.535575
395.208300 0.529666
395.425400 0.530969
395.642500 0.645937
395.859600 0.530867
396.076700 0.593498
396.293800 0.479577
396.510900 0.538829
396.728100 0.481350
396.945300 0.515008
397.162400 0.447042
397.379600 0.400828
397.596800 0.449901
397.814000 0.428878
398.031300 0.403034
398.248500 0.405970
398.465800 0.452787
398.683000 0.384334
398.900300 0.414997
399.117600 0.368680
399.334900 0.348313
399.552200 0.390609
399.769600 0.398074
399.986900 0.366889
400.204300 0.331369
400.421600 0.310740
400.639000 0.364105
400.856400 0.374840
401.073800 0.315512
401.291200 0.304393
401.508700 0.288682
401.726100 0.334563
401.943600 0.283165
402.161000 0.304592
402.378500 0.279875
402.596000 0.284395
402.813500 0.271800
403.031000 0.283973
403.248600 0.258668
403.466100 0.303449
403.683700 0.204305
403.901300 0.241455
404.118900 0.237990
404.336500 0.218390
404.554100 0.280371
404.771700 0.234917
404.989300 0.239688
405.207000 0.241035
405.424600 0.248528
405.642300 0.262017
405.860000 0.210293
406.077700 0.234696
406.295400 0.229892
406.513100 0.215466
406.730900 0.246436
406.948600 0.221431
407.166400 0.191167
407.384200 0.217394
407.602000 0.226722
407.819800 0.174541
408.037600 0.211425
408.255400 0.177265
408.473300 0.210866
408.691100 0.194791
408.909000 0.236791
409.126900 0.193388
409.344800 0.200209
409.562700 0.214151
409.780600 0.197568
409.998500 0.169759
410.216500 0.172959
410.434400 0.178838
410.652400 0.189872
410.870400 0.182031
411.088400 0.174833
411.306400 0.178337
411.524400 0.174198
411.742400 0.169227
411.960500 0.185831
412.178500 0.153204
412.396600 0.142407
412.614700 0.154589
412.832800 0.121468
413.050900 0.166406
413.269000 0.127386
413.487100 0.151017
413.705300 0.147498
413.923400 0.165405
414.141600 0.137914
414.359800 0.174388
414.578000 0.164730
414.796200 0.156417
415.014400 0.159307
415.232600 0.148254
415.450900 0.159988
415.669200 0.143291
415.887400 0.192983
416.105700 0.177754
416.324000 0.166631
416.542300 0.118179
416.760600 0.169632
416.979000 0.141317
417.197300 0.144470
417.415700 0.155484
417.634100 0.156839
417.852400 0.142764
418.070800 0.147478
418.289300 0.167718
418.507700 0.154798
418.726100 0.130026
418.944600 0.160457
419.163000 0.133856
419.381500 0.143925
419.600000 0.140946
419.818500 0.116970
420.037000 0.141706
420.255500 0.155511
420.474100 0.132592
420.692600 0.126830
420.911200 0.143935
421.129800 0.149768
421.348300 0.143541
421.566900 0.146759
421.785600 0.153715
422.004200 0.155930
422.222800 0.124074
422.441500 0.168518
422.660100 0.133640
422.878800 0.160950
423.097500 0.149080
423.316200 0.127138
423.534900 0.104893
423.753600 0.139548
423.972400 0.124152
424.191100 0.148278
424.409900 0.149226
424.628700 0.107589
424.847500 0.145761
425.066300 0.137417
425.285100 0.145708
425.503900 0.146628
425.722800 0.141867
425.941600 0.167514
426.160500 0.158990
426.379300 0.130774
426.598200 0.142170
426.817100 0.133408
427.036100 0.182998
427.255000 0.163282
427.473900 0.141779
427.692900 0.159465
427.911800 0.148506
428.130800 0.138407
428.349800 0.139299
428.568800 0.153885
428.787800 0.116046
429.006800 0.120329
429.225900 0.165835
429.444900 0.125299
429.664000 0.152051
429.883100 0.166738
430.102200 0.147323
430.321300 0.174809
430.540400 0.151195
430.759500 0.140917
430.978700 0.144998
431.197800 0.172617
431.417000 0.129611
431.636200 0.127602
431.855300 0.129029
432.074500 0.163767
432.293800 0.151646
432.513000 0.152978
432.732200 0.167092
432.951500 0.203516
433.170700 0.183935
433.390000 0.166472
433.609300 0.177972
433.828600 0.188234
434.047900 0.156038
434.267300 0.172223
434.486600 0.161093
434.705900 0.154756
434.925300 0.159679
435.144700 0.154439
435.364100 0.175865
435.583500 0.133407
435.802900 0.151027
436.022300 0.190463
436.241800 0.183464
436.461200 0.169235
436.680700 0.172172
436.900100 0.179210
437.119600 0.202269
437.339100 0.175040
437.558600 0.133701
437.778200 0.179332
437.997700 0.175139
438.217300 0.184922
438.436800 0.153586
438.656400 0.178936
438.876000 0.174340
439.095600 0.191016
439.315200 0.184681
439.534800 0.165715
439.754500 0.227811
439.974100 0.222016
440.193800 0.210197
440.413500 0.209539
440.633100 0.212413
440.852800 0.218473
441.072500 0.217420
441.292300 0.217793
441.512000 0.224221
441.731800 0.234812
441.951500 0.219158
442.171300 0.234361
442.391100 0.172864
442.610900 0.257240
442.830700 0.196917
443.050500 0.214521
443.270300 0.217626
443.490200 0.224521
443.710100 0.228073
443.929900 0.217470
444.149800 0.222982
444.369700 0.217332
444.589600 0.230113
444.809500 0.225213
445.029500 0.258521
445.249400 0.224836
445.469400 0.241394
445.689400 0.246255
445.909300 0.225023
446.129300 0.241048
446.349300 0.245554
446.569400 0.244343
446.789400 0.247166
447.009400 0.250998
447.229500 0.232004
447.449600 0.313023
447.669600 0.259083
447.889700 0.264549
448.109800 0.235662
448.330000 0.244168
448.550100 0.297737
448.770200 0.241730
448.990400 0.254066
449.210600 0.271543
449.430700 0.298282
449.650900 0.300937
449.871100 0.271351
450.091400 0.302100
450.311600 0.301988
450.531800 0.286033
450.752100 0.277457
450.972400 0.275699
451.192600 0.313910
451.412900 0.330099
451.633200 0.281286
451.853500 0.305726
452.073900 0.292761
452.294200 0.313261
452.514600 0.290890
452.734900 0.258777
452.955300 0.313808
453.175700 0.343376
453.396100 0.319078
453.616500 0.317582
453.836900 0.336598
454.057400 0.312620
454.277800 0.319865
454.498300 0.319510
454.718800 0.327749
454.939300 0.336665
455.159700 0.325859
455.380300 0.344565
455.600800 0.324730
455.821300 0.335326
456.041900 0.334741
456.262400 0.346868
456.483000 0.364354
456.703600 0.360345
456.924200 0.365660
457.144800 0.375666
457.365400 0.352467
457.586000 0.396065
457.806700 0.361583
458.027400 0.368298
458.248000 0.350737
458.468700 0.369374
458.689400 0.379286
458.910100 0.400254
459.130800 0.415947
459.351600 0.406027
459.572300 0.395881
459.793100 0.425252
460.013800 0.412366
460.234600 0.396323
460.455400 0.425997
460.676200 0.396054
460.897000 0.419393
461.117800 0.418098
461.338700 0.419746
461.559500 0.428201
461.780400 0.411622
462.001300 0.440459
462.222200 0.404644
462.443100 0.509939
462.664000 0.451197
462.884900 0.412997
463.105900 0.468801
463.326800 0.467755
463.547800 0.444304
463.768700 0.463218
463.989700 0.496307
464.210700 0.511940
464.431700 0.479613
464.652800 0.473492
464.873800 0.497896
465.094800 0.512922
465.315900 0.490392
465.537000 0.533115
465.758100 0.518448
465.979200 0.499976
466.200300 0.538452
466.421400 0.527587
466.642500 0.524461
466.863700 0.527071
467.084800 0.528858
467.306000 0.572369
467.527200 0.562964
467.748400 0.566550
467.969600 0.569610
468.190800 0.514500
468.412000 0.547035
468.633300 0.567796
468.854500 0.591026
469.075800 0.534312
469.297000 0.603557
469.518300 0.541404
469.739600 0.605019
469.961000 0.548321
470.182300 0.591615
470.403600 0.592381
470.625000 0.575890
470.846300 0.586965
471.067700 0.594402
471.289100 0.582775
471.510500 0.610282
471.731900 0.566381
471.953300 0.602823
472.174800 0.641219
472.396200 0.672959
472.617700 0.616599
472.839100 0.639080
473.060600 0.656798
473.282100 0.733011
473.503600 0.659923
473.725100 0.649324
473.946700 0.687740
474.168200 0.643856
474.389800 0.759037
474.611300 0.637640
474.832900 0.685279
475.054500 0.697474
475.276100 0.706129
475.497700 0.720115
475.719300 0.650521
475.941000 0.702186
476.162600 0.703249
476.384300 0.693300
476.606000 0.794637
476.827700 0.675100
477.049400 0.699992
477.271100 0.771882
477.492800 0.765990
477.714500 0.716122
477.936300 0.735426
478.158000 0.913474
478.379800 0.777840
478.601600 0.842708
478.823400 0.844999
479.045200 0.721848
479.267000 0.732743
479.488800 0.757323
479.710700 0.797746
479.932500 0.770249
480.154400 0.829985
480.376300 0.840575
480.598200 0.869075
480.820100 0.920473
481.042000 0.823495
481.263900 0.754356
481.485900 0.804940
481.707800 0.916100
481.929800 0.853883
482.151700 0.865591
482.373700 0.841127
482.595700 0.834798
482.817700 0.827360
483.039800 0.905540
483.261800 0.870612
483.483800 0.909419
483.705900 0.908745
483.928000 0.856650
484.150100 0.917835
484.372100 0.906369
484.594300 0.994620
484.816400 0.847606
485.038500 0.870505
485.260600 0.975365
485.482800 0.951270
485.705000 0.953131
485.927100 0.939293
486.149300 0.967516
486.371500 0.993686
486.593700 0.947832
486.816000 0.962408
487.038200 0.994303
487.260500 0.999112
487.482700 0.970484
487.705000 0.853418
487.927300 0.880109
488.149600 0.921316
488.371900 0.959155
488.594200 0.937847
488.816500 0.905717
489.038900 1.094406
489.261200 1.063132
489.483600 1.048521
489.706000 1.058541
489.928400 1.068693
490.150800 1.099626
490.373200 0.975713
490.595600 1.047606
490.818000 1.129490
491.040500 0.958221
491.263000 1.017222
491.485400 1.064102
491.707900 0.948793
491.930400 1.180642
492.152900 1.054808
492.375500 1.079737
492.598000 1.005809
492.820500 1.130272
493.043100 1.087992
493.265700 1.308486
493.488200 1.076366
493.710800 1.367413
493.933400 1.031566
494.156100 1.158119
494.378700 1.112563
494.601300 1.038022
494.824000 1.124478
495.046600 1.092643
495.269300 1.016669
495.492000 1.151742
495.714700 0.990546
495.937400 1.249561
496.160100 1.144121
496.382900 1.122601
496.605600 0.981695
496.828400 1.140244
497.051100 1.077837
497.273900 1.134346
497.496700 1.469950
497.719500 1.088265
497.942300 1.286079
498.165200 1.031488
498.388000 1.166625
498.610900 1.141610
498.833700 1.222711
499.056600 1.025927
499.279500 1.201019
499.502400 1.141690
499.725300 1.196221
499.948200 1.237210
500.171200 1.188421
500.394100 1.303474
500.617100 1.222222
500.840000 1.393191
501.063000 1.149882
501.286000 1.270561
501.509000 1.128082
501.732000 1.269140
501.955100 1.203649
502.178100 1.183397
502.401200 1.083556
502.624200 1.187620
502.847300 1.233992
503.070400 1.129983
503.293500 1.166300
503.516600 1.023125
503.739700 1.278015
503.962800 1.172306
504.186000 1.090637
504.409200 1.182656
504.632300 1.228856
504.855500 1.274246
505.078700 1.160429
505.301900 1.304791
505.525100 1.186244
505.748300 1.231471
505.971600 1.107483
506.194800 1.449330
506.418100 1.157459
506.641400 1.201270
506.864700 1.125808
507.088000 1.229679
507.311300 1.143497
507.534600 1.390635
507.757900 1.486184
507.981300 1.332718
508.204600 1.151317
508.428000 1.219125
508.651400 1.249891
508.874800 1.154576
509.098200 1.244907
509.321600 1.123969
509.545000 1.123807
509.768500 1.337862
509.991900 1.234561
510.215400 1.208857
510.438800 1.174777
510.662300 1.403859
510.885800 1.257873
511.109300 1.223596
511.332900 1.223253
511.556400 1.030861
511.779900 1.238282
512.003500 1.370721
512.227000 1.020827
512.450600 1.333856
512.674200 1.182108
512.897800 1.226224
513.121400 1.048988
513.345100 1.081117
513.568700 0.967537
513.792300 1.646289
514.016000 1.153259
514.239700 1.265316
514.463400 1.091465
514.687100 1.273175
514.910800 1.104044
515.134500 1.342363
515.358200 1.259005
515.581900 1.437567
515.805700 1.007133
516.029500 1.019645
516.253200 1.263043
516.477000 1.140543
516.700800 1.064843
516.924600 1.322064
517.148500 1.021599
517.372300 1.188531
517.596100 1.201687
517.820000 1.158761
518.043900 1.056555
518.267700 0.945300
518.491600 0.999902
518.715500 1.057184
518.939500 1.225126
519.163400 1.091452
519.387300 1.036204
519.611300 1.109486
519.835200 1.113727
520.059200 1.313992
520.283200 1.213827
520.507200 1.161617
520.731200 1.282667
520.955200 1.137319
521.179200 1.094011
521.403300 0.891029
521.627300 0.951846
521.851400 0.977455
522.075500 1.047348
522.299600 0.995874
522.523700 1.106003
522.747800 1.275896
522.971900 1.047056
523.196000 0.960458
523.420200 0.993689
523.644300 1.085470
523.868500 1.103782
524.092700 1.036312
524.316900 0.959385
524.541100 0.978536
524.765300 1.048584
524.989500 1.005675
525.213800 0.995758
525.438000 1.194232
525.662300 1.067382
525.886500 0.976537
526.110800 0.962835
526.335100 1.001339
526.559400 0.927561
526.783700 0.941189
527.008100 0.979491
527.232400 0.974820
527.456800 1.016405
527.681100 0.891844
527.905500 0.936031
528.129900 0.942880
528.354300 0.967662
528.578700 0.822663
528.803100 0.946861
529.027600 0.944311
529.252000 0.863606
529.476500 1.031316
529.700900 0.987027
529.925400 0.825740
530.149900 0.852899
530.374400 0.845400
530.598900 0.908590
530.823400 0.761394
531.048000 0.970064
531.272500 0.862416
531.497100 0.804425
531.721700 0.853100
531.946200 0.744806
532.170800 0.753932
532.395400 0.936963
532.620000 0.772071
532.844700 0.976603
533.069300 0.729105
533.294000 0.865039
533.518600 0.866108
533.743300 0.754479
533.968000 0.821384
534.192700 0.773648
534.417400 0.770312
534.642100 0.811376
534.866800 0.695419
535.091600 0.817208
535.316300 0.746221
535.541100 0.795341
535.765900 0.691880
535.990700 0.756778
536.215500 0.792026
536.440300 0.698382
536.665100 0.686461
536.889900 0.740935
537.114800 0.665692
537.339600 0.812707
537.564500 0.703746
537.789400 0.734367
538.014300 0.640597
538.239200 0.691960
538.464100 0.701593
538.689000 0.672605
538.913900 0.626928
539.138900 0.644817
539.363800 0.665058
539.588800 0.663254
539.813800 0.658087
540.038800 0.580458
540.263800 0.636377
540.488800 0.699136
540.713800 0.671975
540.938900 0.615941
541.163900 0.615810
541.389000 0.595469
541.614000 0.564290
541.839100 0.609687
542.064200 0.609776
542.289300 0.612705
542.514400 0.614322
542.739600 0.598315
542.964700 0.641171
543.189900 0.626326
543.415000 0.592403
543.640200 0.571266
543.865400 0.559194
544.090600 0.580090
544.315800 0.510103
544.541000 0.553755
544.766200 0.528074
544.991500 0.535293
545.216700 0.552027
545.442000 0.522067
545.667300 0.520652
545.892600 0.547620
546.117900 0.499946
546.343200 0.513755
546.568500 0.454287
546.793800 0.510823
547.019200 0.463641
547.244500 0.477749
547.469900 0.516184
547.695300 0.486978
547.920600 0.493029
548.146000 0.498306
548.371500 0.465702
548.596900 0.446300
548.822300 0.431395
549.047800 0.390075
549.273200 0.463711
549.498700 0.406129
549.724200 0.474680
549.949600 0.444757
550.175100 0.380060
550.400700 0.425934
550.626200 0.416211
550.851700 0.444124
551.077300 0.376928
551.302800 0.352126
551.528400 0.369247
551.754000 0.383298
551.979600 0.358688
552.205200 0.384110
552.430800 0.370742
552.656400 0.361508
552.882000 0.408298
553.107700 0.370965
553.333300 0.372820
553.559000 0.326246
553.784700 0.335198
554.010400 0.366877
554.236100 0.346325
554.461800 0.353671
554.687500 0.355597
554.913200 0.337135
555.139000 0.283887
555.364800 0.320667
555.590500 0.297649
555.816300 0.308815
556.042100 0.332636
556.267900 0.315539
556.493700 0.308458
556.719500 0.308292
556.945400 0.309048
557.171200 0.288799
557.397100 0.310807
557.623000 0.282461
557.848800 0.311881
558.074700 0.265964
558.300600 0.284439
558.526600 0.274195
558.752500 0.297010
558.978400 0.236764
559.204400 0.211095
559.430300 0.267339
559.656300 0.265075
559.882300 0.223111
560.108300 0.225948
560.334300 0.225536
560.560300 0.229189
560.786300 0.224848
561.012400 0.219712
561.238400 0.222377
561.464500 0.194453
561.690500 0.227968
561.916600 0.212823
562.142700 0.242933
562.368800 0.227906
562.594900 0.245403
562.821100 0.224946
563.047200 0.233985
563.273300 0.215403
563.499500 0.216768
563.725700 0.196741
563.951900 0.162545
564.178100 0.218859
564.404300 0.203019
564.630500 0.208730
564.856700 0.210850
565.082900 0.168165
565.309200 0.197531
565.535500 0.216754
565.761700 0.198752
565.988000 0.179721
566.214300 0.164587
566.440600 0.144888
566.666900 0.165991
566.893200 0.161316
567.119600 0.158424
567.345900 0.171241
567.572300 0.186563
567.798700 0.137072
568.025000 0.165737
568.251400 0.155858
568.477800 0.147700
568.704300 0.155071
568.930700 0.150257
569.157100 0.161631
569.383600 0.149271
569.610000 0.129961
569.836500 0.139816
570.063000 0.133260
570.289500 0.138039
570.516000 0.146107
570.742500 0.126641
570.969000 0.136158
571.195600 0.129492
571.422100 0.132400
571.648700 0.134404
571.875200 0.132056
572.101800 0.127676
572.328400 0.117452
572.555000 0.124602
572.781600 0.116272
573.008200 0.114377
573.234900 0.124442
573.461500 0.126881
573.688200 0.119466
573.914900 0.123622
574.141500 0.119709
574.368200 0.108390
574.594900 0.107708
574.821600 0.103029
575.048400 0.123606
575.275100 0.101724
575.501800 0.110294
575.728600 0.096829
575.955400 0.090158
576.182100 0.099224
576.408900 0.097413
576.635700 0.095016
576.862600 0.092123
577.089400 0.094201
577.316200 0.087745
577.543100 0.091424
577.769900 0.092474
577.996800 0.092484
578.223700 0.091234
578.450500 0.078554
578.677400 0.090771
578.904400 0.078605
579.131300 0.081473
579.358200 0.088552
579.585100 0.082190
579.812100 0.082416
580.039100 0.075869
580.266000 0.062552
580.493000 0.072701
580.720000 0.067579
580.947000 0.064635
581.174100 0.068723
581.401100 0.071333
581.628100 0.072152
581.855200 0.067362
582.082200 0.071252
582.309300 0.065791
582.536400 0.057535
582.763500 0.050501
582.990600 0.058863
583.217700 0.056007
583.444900 0.055385
583.672000 0.055025
583.899100 0.058066
584.126300 0.044963
584.353500 0.050113
584.580700 0.048247
584.807900 0.054395
585.035100 0.063208
585.262300 0.055602
585.489500 0.057767
585.716700 0.053607
585.944000 0.056139
586.171300 0.050006
586.398500 0.050674
586.625800 0.046418
586.853100 0.045340
587.080400 0.042712
587.307700 0.038922
587.535000 0.051588
587.762400 0.044285
587.989700 0.035930
588.217100 0.052126
588.444500 0.043728
588.671800 0.044911
588.899200 0.042286
589.126600 0.036588
589.354000 0.047673
589.581500 0.046684
589.808900 0.033110
590.036300 0.038816
590.263800 0.034594
590.491300 0.034586
590.718700 0.027500
590.946200 0.040342
591.173700 0.036548
591.401200 0.033766
591.628800 0.039086
591.856300 0.026085
592.083800 0.032979
592.311400 0.020739
592.538900 0.034724
592.766500 0.044475
592.994100 0.036773
593.221700 0.045065
593.449300 0.031043
593.676900 0.042678
593.904600 0.030336
594.132200 0.029446
594.359800 0.031404
594.587500 0.025115
594.815200 0.019356
595.042900 0.039097
595.270500 0.034950
595.498300 0.014373
595.726000 0.025390
595.953700 0.029589
596.181400 0.024275
596.409200 0.023318
596.636900 0.040984
596.864700 0.041821
597.092500 0.037798
597.320300 0.035944
597.548100 0.031267
597.775900 0.033723
598.003700 0.028366
598.231500 0.033769
598.459400 0.028198
598.687200 0.027793
598.915100 0.036006
599.143000 0.027089
599.370900 0.027239
599.598800 0.029603
599.826700 0.026647
600.054600 0.029885
600.282500 0.040974
600.510500 0.029796
600.738400 0.019890
600.966400 0.018427
601.194400 0.018514
601.422300 0.020859
601.650300 0.017481
601.878300 0.022465
602.106400 0.026025
602.334400 0.019535
602.562400 0.020450
602.790500 0.027763
603.018500 0.012659
603.246600 0.026653
603.474700 0.023855
603.702800 0.020304
603.930900 0.022640
604.159000 0.022107
604.387100 0.024898
604.615200 0.026320
604.843400 0.018526
605.071500 0.022318
605.299700 0.018167
605.527900 0.009606
605.756100 0.022800
605.984300 0.013040
606.212500 0.001729
606.440700 0.003059
606.668900 0.002403
606.897200 0.004922
607.125400 0.018401
607.353700 0.010860
607.581900 0.014835
607.810200 0.011907
608.038500 0.007097
608.266800 -0.000510
608.495100 0.011769
608.723500 0.003078
608.951800 0.014494
609.180100 0.011304
609.408500 0.014693
609.636900 0.005090
609.865300 0.007008
610.093600 0.021020
610.322000 0.004992
610.550500 0.007414
610.778900 0.012215
611.007300 0.017876
611.235700 0.012499
611.464200 0.021365
611.692700 0.012255
611.921100 0.008257
612.149600 0.020161
612.378100 -0.007594
612.606600 0.010218
612.835100 0.016171
613.063700 0.016900
613.292200 0.007852
613.520800 0.008252
613.749300 0.001492
613.977900 0.017928
614.206500 0.019910
614.435100 0.022559
614.663700 0.008808
614.892300 0.007940
615.120900 0.012035
615.349500 0.009024
615.578200 0.011908
615.806800 0.011188
616.035500 0.014852
616.264200 0.002740
616.492900 0.010227
616.721600 0.018541
616.950300 0.005797
617.179000 0.002041
617.407700 0.008123
617.636500 0.001740
617.865200 0.011804
618.094000 0.005952
618.322700 -0.000435
618.551500 -0.006118
618.780300 -0.004156
619.009100 -0.000634
619.237900 0.014589
619.466700 0.003528
619.695600 0.006694
619.924400 0.015575
620.153300 0.014477
620.382100 0.018663
620.611000 0.004632
620.839900 0.006464
621.068800 -0.003841
621.297700 -0.006977
621.526600 0.011713
621.755600 -0.001852
621.984500 0.005547
622.213500 -0.005374
622.442400 -0.008027
622.671400 0.009247
622.900400 0.004053
623.129400 0.012806
623.358400 0.026835
623.587400 0.019027
623.816400 -0.006475
624.045400 0.019043
624.274500 0.006326
624.503500 0.004841
624.732600 0.003420
624.961700 0.014124
625.190800 -0.004293
625.419900 -0.004279
625.649000 0.003429
625.878100 -0.002180
626.107200 -0.009518
626.336400 -0.006653
626.565500 -0.002996
626.794700 0.011035
627.023800 -0.003484
627.253000 0.006579
627.482200 0.000491
627.711400 -0.006071
627.940600 0.002939
628.169800 0.005355
628.399100 -0.003279
628.628300 -0.005903
628.857600 -0.012017
629.086800 -0.005771
629.316100 -0.003558
629.545400 0.007058
629.774700 0.019942
630.004000 -0.005240
630.233300 0.010912
630.462600 0.013449
630.692000 0.001883
630.921300 0.014635
631.150700 -0.003675
631.380100 0.002765
631.609400 0.014189
631.838800 0.009025
632.068200 -0.017394
632.297600 0.023448
632.527100 0.030709
632.756500 -0.013455
632.985900 0.000113
633.215400 -0.000488
633.444800 -0.014431
633.674300 0.016504
633.903800 0.001055
634.133300 0.002742
634.362800 0.018430
634.592300 0.003611
634.821800 0.015575
635.051400 0.011342
635.280900 0.021127
635.510500 -0.026461
635.740000 0.006812
635.969600 0.034249
636.199200 -0.006483
636.428800 -0.016631
636.658400 -0.012801
636.888000 0.016523
637.117700 -0.008174
637.347300 -0.004613
637.577000 0.013292
637.806600 0.016493
638.036300 -0.002562
638.266000 -0.008891
638.495700 0.005569
638.725400 0.011044
638.955100 0.001223
639.184800 0.011400
639.414500 0.006305
639.644300 0.011372
639.874000 -0.004355
640.103800 0.012361
640.333600 -0.005027
640.563300 0.009624
640.793100 0.006888
641.022900 0.026737
641.252800 -0.003229
641.482600 0.006700
641.712400 -0.004769
641.942300 -0.003102
642.172100 -0.003824
642.402000 0.018383
642.631900 -0.013689
642.861700 -0.009846
643.091600 0.025455
643.321600 -0.010779
643.551500 -0.030403
643.781400 0.035431
644.011300 0.012647
644.241300 0.022057
644.471200 -0.007682
644.701200 0.007341
644.931200 0.026302
645.161200 -0.026450
645.391200 0.029047
645.621200 0.020825
645.851200 -0.039851
646.081200 0.011474
646.311300 0.020921
646.541300 0.015573
646.771400 -0.009363
647.001500 0.001910
647.231600 0.041507
647.461600 -0.006169
647.691800 0.011908
647.921900 0.021162
648.152000 -0.011701
648.382100 0.013872
648.612300 0.046819
648.842400 0.000743
649.072600 0.018864
649.302800 0.027502
649.532900 0.033981
649.763100 -0.023488
649.993300 -0.002364
650.223600 -0.028817
650.453800 0.008750
650.684000 0.013492
650.914300 -0.015273
651.144500 0.005887
651.374800 0.005633
651.605100 0.001495
651.835400 0.027110
652.065700 0.039999
652.296000 -0.011224
652.526300 0.013264
652.756600 0.003787
652.987000 -0.012514
653.217300 -0.009564
653.447700 0.001005
653.678000 0.026388
653.908400 -0.021847
654.138800 0.008163
654.369200 0.025701
654.599600 0.015575
654.830000 0.030093
655.060500 -0.001351
655.290900 -0.005367
655.521300 0.016347
655.751800 0.025592
655.982300 0.002910
656.212800 0.000974
656.443300 0.001458
656.673800 0.001232
656.904300 0.002850
657.134800 0.016911
657.365300 0.011642
657.595900 0.010690
657.826400 0.011875
658.057000 0.020752
658.287500 0.009204
658.518100 0.004096
658.748700 0.009354
658.979300 0.013816
659.209900 -0.010440
659.440600 -0.032621
659.671200 -0.051412
659.901800 -0.065651
660.132500 -0.041261
660.363200 0.015391
660.593800 -0.012105
660.824500 -0.024207
661.055200 0.000332
661.285900 0.007338
661.516600 -0.010466
661.747400 0.003561
661.978100 -0.024863
662.208800 0.021331
662.439600 0.008516
662.670400 0.022102
662.901100 0.042222
663.131900 -0.010138
663.362700 0.014051
663.593500 0.040202
663.824300 0.027895
664.055200 -0.003503
664.286000 0.004765
664.516800 0.025070
664.747700 0.003463
664.978600 -0.021898
665.209400 0.002188
665.440300 0.033086
665.671200 0.017182
665.902100 0.042929
666.133000 0.012706
666.364000 -0.002386
666.594900 -0.016635
666.825900 0.041767
667.056800 0.014202
667.287800 0.025917
667.518800 -0.013502
667.749700 0.014034
667.980700 -0.010950
668.211700 0.007863
668.442800 0.029541
668.673800 0.025579
668.904800 -0.015415
669.135900 0.056949
669.366900 0.042860
669.598000 -0.018652
669.829100 -0.008735
670.060200 -0.015794
670.291300 0.007046
670.522400 0.013341
670.753500 -0.011772
670.984600 0.026302
671.215700 0.012050
671.446900 -0.000061
671.678100 -0.010217
671.909200 0.018267
672.140400 0.009207
672.371600 -0.003691
672.602800 -0.008717
672.834000 0.005543
673.065200 -0.013767
673.296400 -0.006821
673.527700 -0.004303
673.758900 -0.026108
673.990200 0.010598
674.221400 -0.003309
674.452700 -0.014691
674.684000 0.013844
674.915300 0.014608
675.146600 0.020893
675.377900 -0.010773
675.609300 0.023314
675.840600 0.036639
676.071900 -0.009672
676.303300 0.007034
676.534700 0.012087
676.766100 0.019091
676.997400 0.000377
677.228800 0.014783
677.460200 0.001576
677.691700 -0.005576
677.923100 0.003382
678.154500 0.005943
678.386000 0.005711
678.617400 0.018973
678.848900 0.005884
679.080400 -0.001272
679.311900 0.007638
679.543400 0.015594
679.774900 0.007566
680.006400 0.006169
680.237900 0.017461
680.469400 0.015668
680.701000 0.005960
680.932500 -0.004818
681.164100 0.024778
681.395700 0.027446
681.627300 -0.002879
681.858900 -0.005421
682.090500 -0.005479
682.322100 -0.023455
682.553700 -0.021205
682.785400 0.004033
683.017000 0.008614
683.248700 0.020567
683.480300 0.013684
683.712000 -0.022483
683.943700 0.015069
684.175400 0.027776
684.407100 0.023278
684.638800 -0.006656
684.870500 0.020409
685.102300 0.027302
685.334000 0.009124
685.565800 -0.007268
685.797500 0.010691
686.029300 -0.003451
686.261100 0.027002
686.492900 0.008918
686.724700 0.017010
686.956500 -0.003506
687.188300 0.011709
687.420200 0.010482
687.652000 -0.003107
687.883800 0.009387
688.115700 0.012950
688.347600 0.013170
688.579500 -0.003956
688.811400 -0.023702
689.043300 0.016622
689.275200 0.005655
689.507100 0.014313
689.739000 -0.013768
689.971000 0.004339
690.202900 0.002104
690.434900 -0.005592
690.666900 0.000000
690.898800 0.022026
691.130800 0.019320
691.362800 0.017531
691.594800 0.006454
691.826900 0.003196
692.058900 0.000680
692.290900 0.016863
692.523000 0.024669
692.755000 0.056363
692.987100 -0.000034
693.219200 0.008306
693.451300 0.000510
693.683400 0.028002
693.915500 0.015057
694.147600 -0.019664
694.379700 0.001838
694.611900 0.024828
694.844000 0.005148
695.076200 0.009341
695.308300 0.026153
695.540500 0.017331
695.772700 -0.005848
696.004900 0.018029
696.237100 -0.018709
696.469300 -0.000961
696.701600 0.003615
696.933800 -0.022500
697.166000 0.008192
697.398300 0.032032
697.630600 0.020870
697.862800 0.011004
698.095100 0.031852
698.327400 0.004131
698.559700 0.002387
698.792000 -0.026360
699.024300 0.003326
699.256700 0.021296
699.489000 0.001934
699.721400 0.026873
699.953700 0.010822
700.186100 -0.010277
700.418500 0.001677
700.650900 0.034119
700.883300 0.007717
701.115700 -0.005140
701.348100 -0.038287
701.580600 0.015992
701.813000 0.044632
702.045400 0.006796
702.277900 -0.008282
702.510400 0.026785
702.742900 0.008647
702.975300 0.005705
703.207800 0.002402
703.440300 0.045512
703.672900 0.047699
703.905400 0.012307
704.137900 -0.015266
704.370500 0.011523
704.603000 0.016457
704.835600 0.033786
705.068200 -0.019067
705.300800 -0.000762
705.533400 -0.013185
705.766000 -0.026493
705.998600 0.033076
706.231200 0.006441
706.463800 0.017406
706.696500 0.022003
706.929100 0.026387
707.161800 -0.038859
707.394500 0.006422
707.627200 0.004674
707.859900 0.032232
708.092600 0.026111
708.325300 0.021565
708.558000 0.017338
708.790700 0.015539
709.023500 0.002067
709.256200 -0.027867
709.489000 -0.021423
709.721700 -0.019578
709.954500 -0.022895
710.187300 0.030025
710.420100 0.014049
710.652900 -0.028047
710.885700 -0.005927
711.118600 0.015465
711.351400 -0.073281
711.584200 0.012869
711.817100 0.001080
712.050000 -0.027652
712.282800 -0.014736
712.515700 0.009271
712.748600 -0.010764
712.981500 -0.031666
713.214400 0.009003
713.447400 -0.019648
713.680300 -0.009847
713.913200 -0.034134
714.146200 -0.004764
714.379100 -0.005616
714.612100 0.012366
714.845100 -0.004590
715.078100 0.003961
715.311100 -0.019071
715.544100 0.018605
715.777100 0.006243
716.010200 -0.013014
716.243200 -0.034303
716.476200 0.011878
716.709300 -0.009308
716.942400 0.020002
717.175400 -0.019222
717.408500 -0.021067
717.641600 -0.009530
717.874700 0.006532
718.107800 -0.007544
718.341000 0.020665
718.574100 0.007315
718.807200 0.025728
719.040400 0.046063
719.273600 0.001562
719.506700 0.015051
719.739900 0.005706
719.973100 0.000434
720.206300 -0.017667
720.439500 0.013088
720.672700 0.007240
720.906000 0.009859
721.139200 -0.023918
721.372500 0.032960
721.605700 0.007854
721.839000 0.005526
722.072300 -0.002079
722.305500 -0.016805
722.538800 0.009847
722.772100 0.007173
723.005500 -0.024375
723.238800 0.025171
723.472100 -0.003968
723.705500 0.000909
723.938800 0.015325
724.172200 0.008718
724.405600 -0.009579
724.638900 0.027193
724.872300 0.004923
725.105700 -0.005631
725.339100 0.029518
725.572600 0.015386
725.806000 -0.005041
726.039400 0.011126
726.272900 -0.002452
726.506300 0.002043
726.739800 0.012792
726.973300 0.012619
727.206800 0.001289
727.440300 0.005784
727.673800 0.000303
727.907300 -0.005859
728.140800 -0.020116
728.374300 0.012948
728.607900 -0.012791
728.841400 0.017284
729.075000 0.013826
729.308600 -0.025105
729.542100 -0.005578
729.775700 0.013865
730.009300 -0.023293
730.242900 0.005826
730.476600 0.014620
730.710200 0.023969
730.943800 0.001040
731.177500 0.007598
731.411100 0.026666
731.644800 0.037711
731.878500 0.034028
732.112200 0.029186
732.345800 -0.001709
732.579500 0.038731
732.813300 0.005689
733.047000 0.030200
733.280700 0.042246
733.514500 0.025007
733.748200 0.014348
733.982000 0.030964
734.215700 -0.014935
734.449500 0.002843
734.683300 0.014766
734.917100 0.007924
735.150900 0.001908
735.384700 0.023755
735.618500 0.018253
735.852400 0.007650
736.086200 0.003650
736.320100 0.014968
736.553900 0.011488
736.787800 0.013589
737.021700 0.021950
737.255600 -0.004878
737.489500 -0.005327
737.723400 -0.005106
737.957300 -0.006049
738.191200 -0.021532
738.425200 0.010920
738.659100 0.011294
738.893100 -0.014252
739.127100 0.022278
739.361000 0.017318
739.595000 -0.001246
739.829000 -0.001692
740.063000 0.007452
740.297000 -0.004426
740.531000 -0.016274
740.765100 0.004160
740.999100 -0.000507
741.233200 0.000944
741.467200 0.002399
741.701300 0.004546
741.935400 -0.012753
742.169500 -0.006080
742.403600 -0.017942
742.637700 -0.020252
742.871800 -0.024079
743.105900 -0.016484
743.340000 0.000909
743.574200 -0.015784
743.808300 -0.023717
744.042500 0.016339
744.276700 0.010719
744.510800 -0.004247
744.745000 0.016288
744.979200 0.019312
745.213400 -0.002859
745.447700 0.020439
745.681900 0.008331
745.916100 0.028506
746.150400 0.010058
746.384600 0.039573
746.618900 -0.008022
746.853200 0.008210
747.087400 0.021063
747.321700 -0.000256
747.556000 0.000328
747.790300 0.001637
748.024700 -0.014012
748.259000 -0.009933
748.493300 0.019087
748.727700 -0.011243
748.962000 -0.004012
749.196400 0.005258
749.430800 0.043279
749.665200 -0.004933
749.899500 0.008279
750.133900 0.005365
750.368400 -0.008992
750.602800 0.009110
750.837200 0.011727
751.071700 0.007796
751.306100 0.025745
751.540600 -0.007570
751.775000 0.019794
752.009500 0.016065
752.244000 0.002754
752.478500 -0.007582
752.713000 0.042421
752.947500 -0.028471
753.182000 -0.010435
753.416600 0.001196
753.651100 0.012970
753.885600 0.031476
754.120200 0.017130
754.354800 -0.006469
754.589400 0.025606
754.823900 -0.003891
755.058500 0.016133
755.293100 0.026367
755.527800 -0.003908
755.762400 0.000781
755.997000 0.016609
756.231700 0.008364
756.466300 0.012755
756.701000 0.004820
756.935600 0.018296
757.170300 0.018690
757.405000 0.013255
757.639700 0.002415
757.874400 0.018759
758.109100 0.021768
758.343800 -0.000551
758.578600 -0.004657
758.813300 0.023615
759.048100 0.005831
759.282800 0.011986
759.517600 0.019865
759.752400 0.025133
759.987200 0.012104
760.222000 0.020039
760.456800 0.007300
760.691600 0.019349
760.926400 0.024411
761.161300 0.004276
761.396100 0.005300
761.631000 0.014431
761.865800 0.034292
762.100700 0.007176
762.335600 0.023393
762.570500 -0.008055
762.805400 -0.012106
763.040300 -0.010084
763.275200 0.018736
763.510100 0.008378
763.745000 0.039543
763.980000 0.035753
764.214900 -0.007116
764.449900 0.007380
764.684900 0.013474
764.919800 -0.016410
765.154800 0.011299
765.389800 0.007808
765.624800 0.021338
765.859900 -0.008928
766.094900 -0.002844
766.329900 0.007760
766.565000 -0.001306
766.800000 0.002869
767.035100 -0.007291
767.270100 0.015187
767.505200 0.018193
767.740300 -0.005472
767.975400 -0.005417
768.210500 -0.005274
768.445600 0.016329
768.680800 -0.004445
768.915900 0.018265
769.151000 0.012219
769.386200 0.006975
769.621400 -0.019652
769.856500 0.011450
770.091700 0.018487
770.326900 -0.017781
770.562100 -0.006932
770.797300 0.033678
771.032500 0.014307
771.267700 0.008429
771.503000 -0.010197
771.738200 0.043193
771.973500 -0.021628
772.208700 -0.012382
772.444000 0.002090
772.679300 0.009588
772.914600 -0.005141
773.149900 -0.007755
773.385200 0.008001
773.620500 0.004033
773.855800 0.002695
774.091100 0.002404
774.326500 0.023878
774.561800 0.010047
774.797200 0.049776
775.032600 0.060549
775.267900 -0.017779
775.503300 0.005225
775.738700 0.006015
775.974100 -0.000717
776.209500 0.026933
776.445000 0.034673
776.680400 0.039247
776.915800 -0.004474
777.151300 -0.002950
777.386800 0.004466
777.622200 0.006719
777.857700 -0.010333
778.093200 0.032599
778.328700 -0.004305
778.564200 -0.024621
778.799700 0.032242
779.035200 0.014063
779.270700 -0.009665
779.506300 0.008737
779.741800 -0.023822
779.977400 -0.005011
780.213000 -0.003184
780.448500 0.014172
780.684100 -0.002134
780.919700 -0.000257
781.155300 -0.013052
781.390900 0.024983
781.626500 0.000243
781.862200 0.024851
782.097800 0.008398
782.333500 -0.000384
782.569100 0.033014
782.804800 -0.026269
783.040500 0.026199
783.276100 -0.039697
783.511800 -0.004332
783.747500 -0.013622
783.983200 0.003803
784.219000 0.031748
784.454700 -0.017034
784.690400 0.017996
784.926200 0.025660
785.161900 0.018080
785.397700 0.017413
785.633500 0.025073
785.869200 -0.004238
786.105000 0.007909
786.340800 -0.012274
786.576600 0.012046
786.812400 0.001064
787.048300 0.004588
787.284100 0.037257
787.519900 0.010015
787.755800 0.017370
787.991700 -0.001307
788.227500 -0.002701
788.463400 -0.002474
788.699300 0.009411
788.935200 0.025189
789.171100 -0.009659
789.407000 0.015953
789.642900 -0.006919
789.878900 0.022315
790.114800 -0.030592
790.350700 -0.030634
790.586700 0.026482
790.822700 0.008720
791.058600 -0.029031
791.294600 0.047043
791.530600 -0.042955
791.766600 -0.002958
792.002600 0.000000
792.238700 -0.022260
792.474700 0.016077
792.710700 0.020664
792.946800 -0.043141
793.182800 -0.020581
793.418900 0.006967
793.655000 0.013437
793.891000 0.017010
794.127100 0.017421
794.363200 0.043977
794.599300 0.001197
794.835500 0.030497
795.071600 0.026968
795.307700 0.009236
795.543900 0.012919
795.780000 0.053269
796.016200 0.029449
796.252300 0.035906
796.488500 0.025351
796.724700 0.034839
796.960900 0.030255
797.197100 0.006045
797.433300 -0.003900
797.669500 0.002330
797.905800 0.009817
798.142000 0.016999
798.378300 -0.012035
798.614500 0.012123
798.850800 0.015991
799.087100 -0.020073
799.323300 0.012559
799.559600 0.013194
799.795900 0.005651
800.032200 0.019632
800.268600 0.017574
800.504900 0.001650
800.741200 0.007933
800.977600 0.001252
801.213900 -0.000390
801.450300 0.028115
801.686700 0.013795
801.923000 0.041858
802.159400 0.007280
802.395800 0.040506
802.632200 0.032181
802.868600 -0.040168
803.105100 0.032722
803.341500 -0.029531
803.577900 0.029907
803.814400 0.007547
804.050800 0.019741
804.287300 0.003233
804.523800 -0.005102
804.760300 0.090213
804.996800 -0.006453
805.233300 0.007420
805.469800 0.033086
805.706300 0.044129
805.942800 0.005939
806.179400 -0.018447
806.415900 0.041914
806.652500 0.003718
806.889000 0.042868
807.125600 0.051919
807.362200 -0.007857
807.598800 0.006702
807.835400 -0.009313
808.072000 -0.009810
808.308600 0.010843
808.545200 0.008551
808.781800 0.009533
809.018500 0.066829
809.255100 -0.015639
809.491800 -0.016972
809.728400 0.012501
809.965100 0.015029
810.201800 0.022394
810.438500 -0.007257
810.675200 -0.010499
810.911900 0.009278
811.148600 0.007220
811.385300 -0.016687
811.622100 0.018840
811.858800 0.014461
812.095600 -0.045671
812.332300 0.030874
812.569100 -0.011578
812.805900 -0.012629
813.042700 0.040036
813.279500 0.072843
813.516300 -0.025687
813.753100 -0.010644
813.989900 0.017422
814.226700 0.052927
814.463600 0.021276
814.700400 0.019689
814.937300 0.023087
815.174200 0.044134
815.411000 0.030337
815.647900 -0.043072
815.884800 -0.003079
816.121700 0.010056
816.358600 -0.016591
816.595500 0.002012
816.832400 0.019427
817.069400 -0.003193
817.306300 0.038321
817.543300 0.005885
817.780200 0.024254
818.017200 -0.012243
818.254200 0.072319
818.491200 -0.020245
818.728200 0.033741
818.965200 0.034540
819.202200 -0.000372
819.439200 -0.007940
819.676200 0.017207
819.913300 -0.009298
820.150300 0.000740
820.387400 0.056491
820.624400 0.035674
820.861500 -0.029564
821.098600 0.038654
821.335700 0.035680
821.572700 0.030827
821.809900 0.013017
822.047000 0.114402
822.284100 -0.012534
822.521200 0.068541
822.758400 -0.012959
822.995500 0.066167
823.232700 0.001664
823.469800 0.036722
823.707000 -0.030108
823.944200 0.028555
824.181400 0.049928
824.418600 0.023297
824.655800 -0.036606
824.893000 0.005919
825.130200 -0.031747
825.367500 0.081821
825.604700 0.036906
825.841900 0.048884
826.079200 0.082142
826.316500 0.010765
826.553700 0.028745
826.791000 0.027712
827.028300 0.032052
827.265600 0.016003
827.502900 -0.000088
827.740200 0.029882
827.977600 -0.042795
828.214900 0.065925
828.452200 -0.028281
828.689600 0.033997
828.927000 -0.027314
829.164300 0.052041
829.401700 0.013623
829.639100 0.014575
829.876500 0.002850
830.113900 0.037276
830.351300 0.007872
830.588700 0.058784
830.826100 0.045637
831.063600 -0.043137
831.301000 0.120153
831.538500 -0.015408
831.775900 0.043169
832.013400 0.004876
832.250900 0.087701
832.488400 0.076800
832.725900 -0.005344
832.963400 0.040136
833.200900 0.064329
833.438400 0.085541
833.675900 0.011841
833.913500 0.033949
834.151000 0.030476
834.388600 0.068016
834.626100 0.007736
834.863700 0.064368
835.101300 -0.055004
835.338900 0.004075
835.576500 0.015541
835.814100 -0.037174
836.051700 0.024447
836.289300 0.109517
836.526900 -0.058238
836.764600 0.148737
837.002200 0.072692
837.239900 0.005322
837.477500 0.015443
837.715200 -0.012799
837.952900 0.066861
838.190600 -0.015401
838.428300 0.020890
838.666000 0.118532
838.903700 -0.065107
839.141400 0.108277
839.379100 0.008640
839.616900 0.012512
839.854600 0.000765
840.092400 0.001470
840.330200 0.038847
840.567900 0.056504
840.805700 0.027954
841.043500 0.050241
841.281300 0.076983
841.519100 -0.060112
841.756900 0.005785
841.994700 -0.054497
842.232600 0.050874
842.470400 0.077078
842.708200 -0.132131
842.946100 0.122323
843.184000 -0.037521
843.421800 0.030474
843.659700 -0.028575
843.897600 0.092066
844.135500 0.008690
844.373400 0.083594
844.611300 0.150123
844.849200 0.069676
845.087200 0.004233
845.325100 0.052045
845.563100 -0.012990
845.801000 0.093507
846.039000 0.024132
846.277000 -0.053476
846.514900 -0.060570
846.752900 -0.131071
846.990900 -0.078417
847.228900 -0.027608
847.466900 0.230399
847.705000 -0.020321
847.943000 0.047370
848.181000 -0.100284
848.419100 0.048222
848.657100 0.377364
848.895200 -0.089600
849.133300 -0.015040
849.371300 0.077044
849.609400 0.016008
849.847500 0.089441
850.085600 0.059381
850.323700 0.233175
850.561900 -0.064553
850.800000 0.179699
851.038100 0.186787
851.276300 -0.142642
851.514400 -0.211608
851.752600 -0.042270
851.990800 0.031526
852.228900 0.128323
852.467100 0.116005
852.705300 0.011049
852.943500 0.035163
853.181700 0.040699
853.420000 0.002130
853.658200 -0.051115
853.896400 0.033743
854.134700 0.003216
854.372900 0.068051
854.611200 0.037514
854.849500 0.033292
855.087700 0.025384
855.326000 0.058822
855.564300 0.046506
855.802600 0.017264
856.040900 0.024544
856.279200 0.033443
856.517600 0.140077
856.755900 0.024384
856.994200 0.039319
857.232600 0.020879
857.471000 0.030875
857.709300 -0.035634
857.947700 -0.011811
858.186100 0.041423
858.424500 0.024512
858.662900 0.103392
858.901300 -0.031939
859.139700 0.060250
859.378100 0.025285
859.616600 -0.029342
859.855000 -0.075896
860.093500 -0.043723
860.331900 0.051531
860.570400 0.040651
860.808900 -0.018730
861.047300 0.045575
861.285800 0.052971
861.524300 0.108783
861.762800 0.030217
862.001300 0.007029
862.239900 0.079767
862.478400 0.071164
862.716900 0.122945
862.955500 0.101613
863.194000 -0.054349
863.432600 -0.028344
863.671200 0.120145
863.909800 -0.045838
864.148300 -0.032839
864.386900 0.034450
864.625500 -0.017542
864.864200 0.070603
865.102800 -0.062220
865.341400 -0.040215
865.580000 -0.036689
865.818700 0.048121
866.057300 0.012693
866.296000 0.130512
866.534700 0.064086
866.773300 0.094416
867.012000 0.026658
867.250700 0.008553
867.489400 0.006907
867.728100 -0.009246
867.966900 0.076624
868.205600 0.062989
868.444300 0.052764
868.683100 0.188624
868.921800 -0.057416
869.160600 -0.016529
869.399300 -0.031696
869.638100 -0.040034
869.876900 0.029715
870.115700 0.054195
870.354500 0.079249
870.593300 0.188486
870.832100 0.092461
871.070900 -0.027107
871.309700 0.077687
871.548600 0.060982
871.787400 -0.044278
872.026300 0.089731
872.265100 -0.078611
872.504000 0.188716
872.742900 -0.006729
872.981800 0.177200
873.220700 0.074624
873.459600 0.080087
873.698500 -0.007270
873.937400 0.105825
874.176300 -0.049020
874.415300 -0.014549
874.654200 0.101481
874.893200 0.037573
875.132100 -0.078574
875.371100 0.051853
875.610100 0.117445
875.849100 0.120055
876.088000 -0.010007
876.327000 0.060691
876.566100 0.010070
876.805100 0.141034
877.044100 0.051667
877.283100 -0.082289
877.522200 -0.119744
877.761200 -0.019419
878.000300 0.073631
878.239300 0.074308
878.478400 0.021966
878.717500 0.042430
878.956600 0.024020
879.195700 0.015430
879.434800 -0.041929
879.673900 -0.012532
879.913000 0.013267
880.152100 0.008878
880.391300 0.065631
880.630400 0.018387
880.869600 -0.048336
881.108700 -0.027602
881.347900 -0.015832
881.587100 0.013583
881.826200 0.023795
882.065400 0.018867
882.304600 -0.008548
882.543800 0.086499
882.783100 0.017469
883.022300 -0.107480
883.261500 0.013436
883.500700 -0.047385
883.740000 -0.023021
883.979200 0.174856
884.218500 0.022081
884.457800 0.030947
884.697100 0.252818
884.936300 -0.040142
885.175600 0.030891
885.414900 0.000323
885.654200 0.052745
885.893600 -0.116885
886.132900 0.154032
886.372200 0.098085
886.611600 -0.101698
886.850900 0.176151
887.090300 0.141534
887.329600 -0.037315
887.569000 0.060563
887.808400 -0.014794
888.047800 -0.155694
888.287200 0.015001
888.526600 0.033087
888.766000 -0.115943
889.005400 0.055197
889.244800 0.041962
889.484300 -0.019209
889.723700 0.098639
889.963200 0.007117
890.202600 -0.130556
890.442100 -0.050750
890.681600 -0.032048
890.921100 0.059443
891.160600 0.259443
891.400100 0.230746
891.639600 0.072099
891.879100 0.040962
892.118600 0.054705
892.358100 -0.075851
892.597700 0.062731
892.837200 0.124102
893.076800 0.034795
893.316300 0.004841
893.555900 0.099919
893.795500 0.037540
894.035100 0.017366
894.274700 0.193421
894.514300 0.270180
894.753900 0.023629
894.993500 0.103486
895.233100 -0.116086
895.472700 -0.027615
895.712400 0.008405
895.952000 -0.011593
896.191700 0.050272
896.431400 0.142636
896.671000 0.074588
896.910700 0.148687
897.150400 -0.015305
897.390100 0.012188
897.629800 -0.050408
897.869500 0.032846
898.109200 0.082624
898.348900 -0.018034
898.588700 0.007752
898.828400 0.042962
899.068200 0.094991
899.307900 -0.022794
899.547700 0.112917
899.787500 0.058650
900.027200 -0.095534
900.267000 0.149272
900.506800 0.185419
900.746600 -0.052832
900.986400 0.051994
901.226300 0.044461
901.466100 -0.057701
901.705900 0.034338
901.945800 -0.082104
902.185600 0.122897
902.425500 0.038800
902.665400 -0.078741
902.905200 -0.040581
903.145100 0.133055
903.385000 -0.025097
903.624900 0.086303
903.864800 0.002743
904.104700 -0.081665
904.344600 0.144130
904.584600 -0.141668
904.824500 -0.031758
905.064400 -0.057292
905.304400 0.032382
905.544400 0.009950
905.784300 0.144612
906.024300 0.009756
906.264300 0.071935
906.504300 -0.043323
906.744300 0.215905
906.984300 0.178481
907.224300 0.029622
907.464300 0.104888
907.704300 0.068535
907.944400 -0.101909
908.184400 -0.146483
908.424500 0.076109
908.664500 -0.136292
908.904600 -0.053072
909.144700 0.189125
909.384700 0.143083
909.624800 0.013661
909.864900 -0.041777
910.105000 -0.098089
910.345200 -0.121444
910.585300 -0.045831
910.825400 -0.065339
911.065500 0.043922
911.305700 0.141924
911.545800 0.055130
911.786000 -0.068924
912.026200 0.169026
912.266300 0.195045
912.506500 0.091157
912.746700 0.171213
912.986900 0.005410
913.227100 0.044702
913.467300 0.050410
913.707500 -0.146048
913.947800 0.293139
914.188000 0.073202
914.428300 0.022877
914.668500 0.226179
914.908800 0.385351
915.149000 0.142437
915.389300 0.142587
915.629600 0.184679
915.869900 -0.045058
916.110200 -0.107241
916.350500 0.172691
916.590800 0.003314
916.831100 0.079243
917.071400 0.175336
917.311800 0.129668
917.552100 -0.093512
917.792500 0.004307
918.032800 -0.054475
918.273200 0.142625
918.513600 0.010894
918.753900 0.153628
918.994300 0.239336
919.234700 -0.062643
919.475100 -0.072171
919.715500 0.005522
919.956000 0.215905
920.196400 -0.131565
920.436800 0.132134
920.677300 0.006700
920.917700 0.076830
921.158200 0.092119
921.398600 -0.001636
921.639100 0.120968
921.879600 -0.047608
922.120100 0.086586
922.360600 0.179989
922.601100 -0.019061
922.841600 0.061903
923.082100 0.005339
923.322600 -0.119417
923.563100 0.001242
923.803700 0.387784
924.044200 0.151484
924.284800 0.317744
924.525400 -0.014737
924.765900 0.049037
925.006500 0.072293
925.247100 -0.026550
925.487700 0.021282
925.728300 0.148959
925.968900 0.336713
926.209500 -0.002025
926.450100 0.373162
926.690800 0.323117
926.931400 0.045757
927.172000 -0.078848
927.412700 3.442480
927.653300 0.035216
927.894000 0.332888
928.134700 0.223597
928.375400 0.087973
928.616100 0.050309
928.856800 0.003319
929.097500 -0.093894
929.338200 0.015482
929.578900 0.036416
929.819600 0.080189
930.060400 -0.026976
930.301100 0.293433
930.541900 -0.109144
930.782600 3.413467
931.023400 0.026525
931.264200 0.072003
931.504900 0.342629
931.745700 0.477768
931.986500 0.024285
932.227300 0.234794
932.468100 0.468840
932.708900 -0.168849
932.949800 -0.017662
933.190600 0.034484
933.431400 0.106674
933.672300 0.042901
933.913100 -0.081037
934.154000 0.063358
934.394900 -0.065153
934.635800 0.006854
934.876600 -0.125952
935.117500 0.430876
935.358400 0.036663
935.599300 0.270619
935.840300 -0.176908
936.081200 0.058632
936.322100 -0.031551
936.563000 0.029480
936.804000 0.083407
937.044900 0.065039
937.285900 -0.043534
937.526900 -0.029384
937.767800 3.521007
938.008800 0.115795
938.249800 0.009939
938.490800 0.363294
938.731800 -0.039212
938.972800 0.419052
939.213800 -0.012475
939.454900 -0.033401
939.695900 -0.022600
939.936900 -0.090402
940.178000 0.205191
940.419000 -0.175451
940.660100 3.370698
940.901200 0.369168
941.142200 -0.251727
941.383300 0.453650
941.624400 0.459441
941.865500 1.031535
942.106600 -0.080770
942.347700 -0.235502
942.588900 -0.064374
942.830000 -0.061237
943.071100 3.047275
943.312300 1.066035
943.553400 0.257296
943.794600 0.158750
944.035700 0.047270
944.276900 -0.168974
944.518100 -0.059792
944.759300 0.265509
945.000500 -0.103070
945.241700 0.128013
945.482900 0.065405
945.724100 0.389759
945.965300 -0.239308
946.206600 0.076523
946.447800 -0.275521
946.689100 -0.083633
946.930300 -0.183751
947.171600 0.800400
947.412800 3.171434
947.654100 2.323105
947.895400 0.212974
948.136700 0.049396
948.378000 0.081689
948.619300 1.298877
948.860600 0.230260
949.101900 0.115723
949.343300 0.428357
949.584600 0.031640
949.825900 0.726431
950.067300 0.826393
950.308600 -0.213880
950.550000 0.712357
950.791400 0.017270
951.032700 -0.317032
951.274100 -0.053631
951.515500 0.137820
951.756900 0.181055
951.998300 0.112119
952.239800 2.451348
952.481200 0.407027
952.722600 0.283044
952.964000 0.093558
953.205500 0.032841
953.446900 -0.069555
953.688400 0.807993
953.929900 0.251424
954.171300 -1.341418
954.412800 0.307969
954.654300 0.236003
954.895800 -0.211178
955.137300 -0.349665
955.378800 -0.153827
955.620300 -0.163037
955.861800 3.323252
956.103400 0.531215
956.344900 0.273211
956.586500 -0.130243
956.828000 0.289784
957.069600 0.305895
957.311100 -0.218454
957.552700 1.336796
957.794300 -0.021652
958.035900 0.166164
958.277500 -0.467964
958.519100 3.125806
958.760700 0.329675
959.002300 -0.128719
959.243900 -0.061547
959.485600 -0.221010
959.727200 -0.214017
959.968800 2.918555
960.210500 0.770614
960.452200 2.840733
960.693800 1.471920
960.935500 -1.447158
961.177200 0.129802
961.418900 -0.512329
961.660600 0.748109
961.902300 -0.060129
962.144000 -0.492520
962.385700 1.344533
962.627400 0.604733
962.869200 1.272173
963.110900 0.466072
963.352700 0.166164
963.594400 3.215373
963.836200 0.103039
964.077900 -0.033467
964.319700 1.698660
964.561500 -0.077561
964.803300 3.139249
965.045100 -0.353329
965.286900 -0.579562
965.528700 0.922353
965.770500 -0.045405
966.012300 2.827369
966.254200 -0.169730
966.496000 -0.640143
966.737900 0.155287
966.979700 0.794810
967.221600 0.495328
967.463400 0.011665
967.705300 0.857822
967.947200 0.272028
968.189100 -0.440793
968.431000 0.687837
968.672900 3.067443
968.914800 -0.159576
969.156700 -0.338069
969.398700 -0.281299
969.640600 0.555317
969.882500 -0.115382
970.124500 0.280722
970.366400 -0.161738
970.608400 3.042969
970.850400 -0.208961
971.092300 2.890421
971.334300 0.213638
971.576300 2.598791
971.818300 0.151160
972.060300 0.143880
972.302300 0.199899
972.544300 -0.089346
972.786400 0.086650
973.028400 0.532884
973.270400 -0.000539
973.512500 0.494715
973.754500 0.426319
973.996600 2.994757
974.238700 -0.146201
974.480700 2.853698
974.722800 0.119896
974.964900 -0.025057
975.207000 3.215373
975.449100 -0.406618
975.691200 0.186547
975.933300 0.265987
976.175500 -2.896526
976.417600 0.540608
976.659700 0.408843
976.901900 3.021603
977.144000 0.654748
977.386200 2.745075
977.628300 0.269617
977.870500 3.139249
978.112700 1.086505
978.354900 -0.120552
978.597100 0.091096
978.839300 0.123682
979.081500 0.386924
979.323700 -1.845098
979.565900 -0.482737
979.808200 1.212211
980.050400 3.226342
980.292600 1.318404
980.534900 0.221147
980.777100 0.780944
981.019400 -0.573110
981.261700 1.010792
981.504000 3.348889
981.746200 1.845098
981.988500 0.822927
982.230800 2.805501
982.473100 0.053003
982.715500 3.218010
982.957800 2.799341
983.200100 0.452520
983.442400 -0.082187
983.684800 2.799341
983.927100 0.352602
984.169500 2.985426
984.411800 -0.269180
984.654200 2.760422
984.896600 0.197990
985.139000 -0.614649
985.381400 3.229170
985.623800 3.218010
985.866200 -0.114867
986.108600 -3.152900
986.351000 -0.000706
986.593400 -0.510212
986.835800 3.142702
987.078300 0.231896
987.320700 1.493358
987.563200 -0.184092
987.805600 2.414973
988.048100 0.281261
988.290600 2.760422
988.533100 0.000000
988.775600 1.021416
989.018000 0.462065
989.260500 0.375397
989.503100 0.000000
989.745600 2.123852
989.988100 0.000000
990.230600 -0.061662
990.473200 -0.147637
990.715700 0.085952
990.958200 2.523746
991.200800 -0.322368
991.443400 0.000000
991.685900 -0.018236
991.928500 0.000000
992.171100 2.158362
992.413700 0.998702
992.656300 0.508455
992.898900 -0.368483
993.141500 3.078457
993.384100 3.021603
993.626700 0.287592
993.869400 0.465956
994.112000 2.806180
994.354700 0.750271
994.597300 1.583037
994.840000 0.000000
995.082600 0.029758
995.325300 -0.883387
995.568000 -0.066542
995.810700 -0.780844
996.053400 -0.095134
996.296100 -0.069157
996.538800 0.314615
996.781500 3.171141
997.024200 -0.603994
997.267000 2.791691
997.509700 0.326336
997.752400 2.768638
997.995200 0.132074
998.237900 2.701568
998.480700 -0.275120
998.723500 0.000000
998.966200 2.956168
999.209000 0.000000
999.451800 3.003891
999.694600 0.064294
999.937400 2.318063
1000.180200 0.375465
1000.423000 1.142362
1000.665900 -0.197221
1000.908700 -0.621668
1001.151500 0.482029
1001.394400 2.745075
1001.637200 -0.047675
1001.880100 0.778151
1002.123000 2.840106
1002.365800 2.599883
1002.608700 -0.152610
1002.851600 0.092426
1003.094500 3.086360
1003.337400 -0.293061
1003.580300 -2.294466
1003.823200 0.455932
1004.066100 1.498803
1004.309100 -0.348112
1004.552000 -0.169225
1004.794900 2.847573
1005.037900 0.198928
1005.280800 -0.066559
1005.523800 0.100410
1005.766700 2.783904
1006.009700 0.095937
1006.252700 0.000000
1006.495700 -0.319986
1006.738700 -1.447158
1006.981700 3.136086
1007.224700 0.808114
1007.467700 -0.406373
1007.710700 2.610660
1007.953800 0.453281
1008.196800 2.736397
1008.439800 0.017521
1008.682900 2.691965
1008.925900 0.276746
1009.169000 -0.077192
1009.412100 -2.860338
1009.655100 0.561442
1009.898200 3.108227
1010.141300 2.432969
1010.384400 0.251661
1010.627500 -0.589336
1010.870600 0.174905
1011.113700 3.086360
1011.356800 2.820201
1011.600000 -1.215115
1011.843100 -0.012639
1012.086300 -2.127105
1012.329400 -0.431443
1012.572600 0.000000
1012.815700 -0.146536
1013.058900 -2.961421
1013.302100 3.003891
1013.545200 2.960946
1013.788400 0.056688
1014.031600 -2.896526
1014.274800 2.230084
1014.518000 3.161967
1014.761300 -0.012234
1015.004500 -3.207365
1015.247700 2.940516
1015.490900 -1.447158
1015.734200 0.511446
1015.977400 -0.260714
1016.220700 -2.806180
1016.464000 -0.127822
1016.707200 2.190332
1016.950500 2.378398
1017.193800 2.907949
1017.437100 0.603251
1017.680400 0.421945
1017.923700 -0.114720
1018.167000 0.621064
1018.410300 -0.632089
1018.653600 -0.184137
1018.896900 3.021603
1019.140300 0.337348
1019.383600 -0.318154
1019.627000 2.950851
1019.870300 -0.187830
1020.113700 0.018013
1020.357100 2.575188
1020.600400 -0.205865
1020.843800 0.479598
1021.087200 3.287130
1021.330600 -2.653213
1021.574000 0.210438
1021.817400 0.000000
1022.060800 -2.941014
1022.304200 -2.632457
1022.547700 2.902003
1022.791100 2.432969
1023.034500 2.812913
